%OpenBCI Raw EEG Data
%Number of channels = 8
%Sample Rate = 250.0 Hz
%First Column = SampleIndex
%Last Column = Timestamp 
%Other Columns = EEG data in microvolts followed by Accel Data (in G) interleaved with Aux Data
1, -162578.98, -162190.72, -162420.38, -162305.83, -162719.52, -162828.56, -162231.61, -162480.02, 0.000, 0.000, 0.000, 19:58:51.227, 1541897931227
2, -162576.56, -162186.16, -162415.28, -162404.17, -162715.84, -162820.38, -162223.95, -162481.42, 0.000, 0.000, 0.000, 19:58:51.710, 1541897931710
3, -162570.09, -162201.38, -162412.17, -162378.47, -162720.66, -162818.13, -162222.36, -162481.02, 0.000, 0.000, 0.000, 19:58:51.710, 1541897931710
4, -162562.05, -162217.38, -162411.03, -162343.17, -162723.23, -162819.47, -162225.94, -162485.13, 0.000, 0.000, 0.000, 19:58:51.710, 1541897931710
5, -162576.69, -162208.14, -162421.98, -162316.16, -162727.22, -162823.67, -162229.22, -162486.14, 0.000, 0.000, 0.000, 19:58:51.710, 1541897931710
6, -162586.06, -162210.31, -162427.06, -162284.14, -162727.83, -162825.56, -162229.89, -162485.38, 0.000, 0.000, 0.000, 19:58:51.711, 1541897931711
7, -162577.91, -162208.59, -162420.55, -162254.25, -162723.28, -162819.20, -162224.11, -162480.75, 0.074, 0.064, 0.736, 19:58:51.711, 1541897931711
8, -162550.11, -162220.48, -162400.53, -162361.36, -162723.72, -162802.02, -162209.63, -162482.48, 0.000, 0.000, 0.000, 19:58:51.711, 1541897931711
9, -162554.78, -162209.83, -162402.72, -162415.97, -162724.77, -162799.55, -162207.36, -162484.02, 0.000, 0.000, 0.000, 19:58:51.711, 1541897931711
10, -162566.83, -162206.31, -162410.81, -162387.81, -162726.44, -162801.03, -162209.11, -162483.39, 0.000, 0.000, 0.000, 19:58:51.711, 1541897931711
11, -162564.88, -162203.78, -162410.39, -162351.94, -162724.11, -162800.28, -162209.20, -162483.19, 0.000, 0.000, 0.000, 19:58:51.711, 1541897931711
12, -162555.97, -162197.70, -162407.81, -162315.50, -162727.38, -162801.14, -162211.98, -162486.16, 0.000, 0.000, 0.000, 19:58:51.712, 1541897931712
13, -162563.63, -162202.95, -162415.06, -162284.95, -162732.14, -162804.17, -162215.97, -162489.02, 0.000, 0.000, 0.000, 19:58:51.713, 1541897931713
14, -162575.94, -162210.11, -162421.58, -162250.50, -162732.50, -162805.09, -162215.66, -162487.94, 0.000, 0.000, 0.000, 19:58:51.714, 1541897931714
15, -162562.22, -162203.39, -162408.02, -162312.02, -162724.98, -162790.25, -162201.58, -162483.77, 0.000, 0.000, 0.000, 19:58:51.714, 1541897931714
16, -162541.67, -162206.09, -162394.00, -162405.22, -162719.39, -162778.72, -162192.34, -162479.42, 0.092, 0.082, 0.858, 19:58:51.714, 1541897931714
17, -162542.89, -162196.86, -162397.06, -162383.67, -162723.08, -162781.45, -162195.06, -162481.58, 0.000, 0.000, 0.000, 19:58:51.715, 1541897931715
18, -162559.77, -162202.06, -162407.64, -162356.11, -162726.66, -162784.70, -162197.58, -162481.80, 0.000, 0.000, 0.000, 19:58:51.715, 1541897931715
19, -162561.69, -162202.30, -162409.27, -162322.36, -162725.64, -162784.19, -162198.22, -162480.88, 0.000, 0.000, 0.000, 19:58:51.719, 1541897931719
20, -162554.11, -162196.64, -162407.08, -162285.17, -162728.45, -162784.16, -162200.41, -162482.89, 0.000, 0.000, 0.000, 19:58:51.725, 1541897931725
21, -162548.67, -162192.14, -162406.39, -162250.33, -162727.64, -162784.83, -162201.47, -162484.89, 0.000, 0.000, 0.000, 19:58:51.727, 1541897931727
22, -162552.44, -162192.45, -162403.88, -162344.78, -162723.05, -162774.06, -162190.05, -162482.16, 0.000, 0.000, 0.000, 19:58:51.727, 1541897931727
23, -162549.06, -162206.84, -162399.50, -162412.73, -162724.98, -162765.83, -162183.41, -162479.16, 0.000, 0.000, 0.000, 19:58:51.727, 1541897931727
24, -162537.95, -162215.44, -162392.64, -162374.88, -162725.77, -162760.77, -162179.73, -162486.20, 0.000, 0.000, 0.000, 19:58:51.728, 1541897931728
25, -162529.45, -162212.34, -162390.36, -162336.77, -162731.53, -162761.08, -162180.11, -162490.88, 0.000, 0.000, 0.000, 19:58:51.728, 1541897931728
26, -162545.33, -162207.75, -162400.39, -162308.39, -162736.23, -162763.75, -162181.80, -162490.19, 0.100, 0.086, 0.922, 19:58:51.728, 1541897931728
27, -162551.89, -162208.55, -162404.50, -162272.92, -162736.05, -162763.78, -162183.31, -162489.59, 0.000, 0.000, 0.000, 19:58:51.728, 1541897931728
28, -162541.08, -162219.19, -162395.61, -162261.23, -162733.64, -162755.61, -162176.66, -162484.34, 0.000, 0.000, 0.000, 19:58:51.728, 1541897931728
29, -162517.22, -162222.89, -162377.84, -162388.81, -162729.61, -162741.80, -162163.78, -162483.56, 0.000, 0.000, 0.000, 19:58:51.728, 1541897931728
30, -162528.16, -162203.25, -162384.45, -162416.78, -162730.13, -162742.63, -162163.11, -162484.17, 0.000, 0.000, 0.000, 19:58:51.728, 1541897931728
31, -162537.50, -162207.86, -162389.75, -162385.39, -162730.84, -162742.98, -162164.09, -162482.36, 0.000, 0.000, 0.000, 19:58:51.729, 1541897931729
32, -162531.95, -162202.89, -162386.58, -162347.16, -162726.66, -162739.63, -162162.92, -162481.02, 0.000, 0.000, 0.000, 19:58:51.729, 1541897931729
33, -162520.80, -162195.16, -162383.27, -162309.47, -162727.48, -162739.06, -162165.00, -162484.14, 0.000, 0.000, 0.000, 19:58:51.729, 1541897931729
34, -162531.20, -162202.41, -162391.44, -162279.06, -162733.05, -162742.08, -162168.41, -162485.42, 0.000, 0.000, 0.000, 19:58:51.729, 1541897931729
35, -162540.86, -162207.77, -162396.92, -162247.27, -162733.30, -162741.08, -162167.00, -162482.06, 0.000, 0.000, 0.000, 19:58:51.729, 1541897931729
36, -162525.34, -162213.89, -162382.48, -162334.66, -162729.44, -162726.58, -162153.19, -162481.89, 0.104, 0.088, 0.948, 19:58:51.729, 1541897931729
37, -162506.72, -162216.48, -162370.84, -162404.22, -162726.48, -162718.33, -162146.91, -162484.56, 0.000, 0.000, 0.000, 19:58:51.729, 1541897931729
38, -162512.13, -162203.56, -162376.23, -162378.13, -162732.00, -162720.63, -162149.81, -162485.64, 0.000, 0.000, 0.000, 19:58:51.730, 1541897931730
39, -162527.44, -162208.53, -162385.78, -162349.92, -162735.30, -162722.48, -162150.56, -162484.77, 0.000, 0.000, 0.000, 19:58:51.730, 1541897931730
40, -162525.83, -162206.42, -162384.48, -162314.98, -162731.63, -162720.00, -162148.98, -162482.78, 0.000, 0.000, 0.000, 19:58:51.730, 1541897931730
41, -162515.11, -162198.47, -162380.20, -162276.86, -162727.80, -162719.05, -162150.61, -162485.06, 0.000, 0.000, 0.000, 19:58:51.738, 1541897931738
42, -162510.61, -162199.70, -162383.14, -162254.69, -162729.95, -162716.20, -162112.39, -162488.80, 0.000, 0.000, 0.000, 19:58:51.739, 1541897931739
43, -162502.52, -162233.36, -162405.48, -162365.61, -162734.08, -162693.06, -161926.25, -162492.89, 0.000, 0.000, 0.000, 19:58:51.740, 1541897931740
44, -162474.20, -162257.50, -162431.13, -162379.03, -162727.44, -162663.45, -162057.61, -162489.58, 0.000, 0.000, 0.000, 19:58:51.740, 1541897931740
45, -162434.13, -162278.73, -162432.61, -162311.14, -162728.27, -162631.89, -162356.27, -162487.50, 0.000, 0.000, 0.000, 19:58:51.740, 1541897931740
46, -162409.64, -162219.34, -162371.67, -162254.02, -162721.61, -162613.89, -162799.23, -162481.91, 0.104, 0.086, 0.970, 19:58:51.740, 1541897931740
47, -162415.75, -162192.88, -162407.17, -162253.63, -162722.75, -162605.69, -162935.52, -162486.63, 0.000, 0.000, 0.000, 19:58:51.740, 1541897931740
48, -162403.92, -162190.73, -162393.27, -162377.70, -162720.42, -162589.17, -162919.05, -162484.56, 0.000, 0.000, 0.000, 19:58:51.740, 1541897931740
49, -162393.06, -162200.08, -162380.70, -162382.20, -162717.66, -162584.86, -162915.05, -162482.83, 0.000, 0.000, 0.000, 19:58:51.740, 1541897931740
50, -162384.20, -162203.16, -162376.16, -162344.80, -162721.83, -162584.81, -162916.50, -162485.27, 0.000, 0.000, 0.000, 19:58:51.741, 1541897931741
51, -162399.86, -162195.89, -162377.14, -162317.09, -162726.70, -162587.52, -162918.06, -162485.23, 0.000, 0.000, 0.000, 19:58:51.742, 1541897931742
52, -162409.78, -162199.66, -162384.08, -162286.33, -162728.20, -162589.48, -162919.64, -162485.98, 0.000, 0.000, 0.000, 19:58:51.742, 1541897931742
53, -162404.06, -162195.30, -162380.95, -162244.77, -162725.08, -162586.45, -162917.08, -162484.22, 0.000, 0.000, 0.000, 19:58:51.742, 1541897931742
54, -162381.70, -162190.22, -162365.64, -162300.58, -162720.19, -162574.98, -162906.53, -162482.67, 0.000, 0.000, 0.000, 19:58:51.742, 1541897931742
55, -162386.41, -162183.53, -162366.38, -162408.03, -162717.94, -162569.23, -162899.73, -162481.27, 0.106, 0.092, 0.972, 19:58:51.742, 1541897931742
56, -162394.89, -162185.08, -162370.70, -162388.08, -162721.05, -162568.02, -162898.77, -162478.98, 0.000, 0.000, 0.000, 19:58:51.742, 1541897931742
57, -162389.80, -162185.55, -162367.72, -162351.20, -162725.09, -162565.55, -162896.72, -162477.64, 0.000, 0.000, 0.000, 19:58:51.742, 1541897931742
58, -162377.08, -162188.77, -162363.77, -162314.50, -162723.39, -162565.50, -162898.22, -162480.22, 0.000, 0.000, 0.000, 19:58:51.742, 1541897931742
59, -162386.84, -162186.69, -162372.31, -162285.48, -162727.11, -162569.17, -162902.34, -162482.06, 0.000, 0.000, 0.000, 19:58:51.743, 1541897931743
60, -162401.88, -162195.61, -162381.03, -162252.69, -162730.03, -162571.56, -162903.63, -162482.72, 0.000, 0.000, 0.000, 19:58:51.743, 1541897931743
61, -162388.02, -162206.06, -162384.13, -162302.89, -162724.66, -162557.42, -162890.14, -162484.41, 0.000, 0.000, 0.000, 19:58:51.743, 1541897931743
62, -162365.30, -162200.38, -162397.06, -162402.86, -162721.13, -162545.75, -162880.11, -162482.78, 0.000, 0.000, 0.000, 19:58:51.743, 1541897931743
63, -162368.52, -162186.44, -162384.70, -162384.81, -162726.08, -162546.73, -162881.47, -162483.03, 0.000, 0.000, 0.000, 19:58:51.747, 1541897931747
64, -162383.20, -162191.50, -162384.48, -162356.20, -162728.50, -162547.17, -162881.89, -162480.80, 0.000, 0.000, 0.000, 19:58:51.748, 1541897931748
65, -162384.05, -162190.63, -162384.84, -162322.05, -162726.48, -162545.70, -162881.09, -162481.63, 0.108, 0.094, 0.974, 19:58:51.748, 1541897931748
66, -162373.55, -162192.50, -162380.86, -162284.81, -162726.38, -162544.58, -162881.66, -162493.25, 0.000, 0.000, 0.000, 19:58:51.749, 1541897931749
67, -162372.14, -162195.36, -162382.94, -162249.09, -162727.33, -162545.92, -162884.47, -162496.86, 0.000, 0.000, 0.000, 19:58:51.750, 1541897931750
68, -162379.83, -162189.92, -162383.72, -162305.39, -162725.95, -162538.44, -162876.28, -162486.88, 0.000, 0.000, 0.000, 19:58:51.750, 1541897931750
69, -162372.98, -162181.92, -162376.70, -162410.45, -162725.70, -162529.30, -162866.78, -162486.50, 0.000, 0.000, 0.000, 19:58:51.750, 1541897931750
70, -162363.53, -162189.86, -162371.94, -162386.67, -162726.39, -162526.77, -162865.58, -162490.50, 0.000, 0.000, 0.000, 19:58:51.750, 1541897931750
71, -162357.98, -162200.77, -162371.50, -162352.84, -162725.48, -162527.59, -162868.47, -162492.97, 0.000, 0.000, 0.000, 19:58:51.750, 1541897931750
72, -162374.47, -162194.78, -162381.53, -162325.05, -162728.30, -162530.30, -162869.47, -162491.03, 0.000, 0.000, 0.000, 19:58:51.750, 1541897931750
73, -162379.25, -162195.97, -162384.86, -162292.09, -162727.31, -162530.08, -162870.30, -162490.77, 0.000, 0.000, 0.000, 19:58:51.751, 1541897931751
74, -162370.94, -162194.64, -162382.13, -162250.45, -162726.06, -162526.28, -162868.38, -162489.02, 0.000, 0.000, 0.000, 19:58:51.751, 1541897931751
75, -162349.09, -162202.69, -162389.98, -162307.08, -162724.30, -162513.63, -162857.63, -162487.61, 0.108, 0.096, 0.978, 19:58:51.751, 1541897931751
76, -162357.39, -162189.89, -162383.09, -162416.67, -162721.81, -162508.78, -162851.31, -162486.52, 0.000, 0.000, 0.000, 19:58:51.751, 1541897931751
77, -162364.88, -162190.16, -162381.80, -162397.02, -162722.73, -162509.42, -162851.81, -162488.39, 0.000, 0.000, 0.000, 19:58:51.752, 1541897931752
78, -162358.69, -162184.08, -162378.69, -162358.31, -162725.14, -162505.77, -162849.70, -162497.75, 0.000, 0.000, 0.000, 19:58:51.753, 1541897931753
79, -162347.28, -162175.92, -162375.05, -162320.58, -162727.11, -162505.47, -162851.55, -162502.34, 0.000, 0.000, 0.000, 19:58:51.753, 1541897931753
80, -162358.95, -162183.97, -162382.42, -162292.23, -162729.09, -162508.06, -162853.55, -162501.56, 0.000, 0.000, 0.000, 19:58:51.753, 1541897931753
81, -162369.59, -162190.31, -162388.02, -162256.98, -162730.02, -162508.16, -162853.55, -162498.86, 0.000, 0.000, 0.000, 19:58:51.753, 1541897931753
82, -162355.11, -162197.73, -162378.84, -162292.64, -162725.81, -162494.73, -162841.80, -162485.83, 0.000, 0.000, 0.000, 19:58:51.753, 1541897931753
83, -162254.30, -162227.56, -162386.69, -162399.59, -162722.38, -162483.34, -162831.73, -162478.20, 0.000, 0.000, 0.000, 19:58:51.753, 1541897931753
84, -162186.02, -162212.30, -162371.58, -162377.89, -162723.08, -162476.88, -162824.42, -162483.86, 0.000, 0.000, 0.000, 19:58:51.754, 1541897931754
85, -162395.28, -162198.48, -162376.05, -162334.95, -162724.47, -162464.50, -162811.05, -162487.03, 0.108, 0.094, 0.980, 19:58:51.754, 1541897931754
86, -162732.45, -162236.94, -162372.44, -162286.88, -162728.09, -162449.92, -162797.14, -162482.80, 0.000, 0.000, 0.000, 19:58:51.754, 1541897931754
87, -162893.94, -162237.81, -162411.61, -162239.50, -162725.86, -162442.17, -162790.47, -162483.75, 0.000, 0.000, 0.000, 19:58:51.754, 1541897931754
88, -162882.75, -162220.84, -162420.72, -162304.34, -162726.06, -162427.44, -162775.77, -162488.39, 0.000, 0.000, 0.000, 19:58:51.755, 1541897931755
89, -162889.42, -162194.42, -162370.75, -162401.78, -162725.33, -162420.55, -162767.78, -162489.33, 0.000, 0.000, 0.000, 19:58:51.756, 1541897931756
90, -162889.72, -162192.75, -162370.80, -162376.25, -162722.28, -162419.64, -162767.59, -162488.39, 0.000, 0.000, 0.000, 19:58:51.757, 1541897931757
91, -162879.75, -162207.16, -162366.95, -162337.94, -162723.95, -162418.55, -162768.33, -162489.84, 0.000, 0.000, 0.000, 19:58:51.757, 1541897931757
92, -162877.72, -162210.78, -162369.69, -162305.06, -162732.97, -162420.98, -162772.03, -162493.88, 0.000, 0.000, 0.000, 19:58:51.757, 1541897931757
93, -162895.44, -162208.77, -162381.75, -162276.52, -162736.83, -162423.61, -162774.36, -162493.73, 0.000, 0.000, 0.000, 19:58:51.758, 1541897931758
94, -162893.61, -162208.95, -162385.73, -162251.94, -162732.08, -162418.47, -162769.67, -162490.22, 0.000, 0.000, 0.000, 19:58:51.758, 1541897931758
95, -162868.69, -162229.97, -162402.94, -162360.14, -162725.86, -162401.38, -162753.69, -162490.09, 0.106, 0.096, 0.980, 19:58:51.758, 1541897931758
96, -162854.27, -162217.91, -162384.66, -162400.14, -162727.31, -162394.30, -162748.23, -162489.23, 0.000, 0.000, 0.000, 19:58:51.758, 1541897931758
97, -162870.50, -162205.64, -162379.61, -162372.47, -162729.72, -162395.77, -162749.75, -162487.25, 0.000, 0.000, 0.000, 19:58:51.758, 1541897931758
98, -162875.80, -162208.84, -162383.72, -162339.55, -162730.06, -162396.69, -162750.27, -162486.72, 0.000, 0.000, 0.000, 19:58:51.758, 1541897931758
99, -162869.36, -162204.33, -162381.38, -162302.52, -162726.64, -162395.52, -162750.56, -162487.88, 0.000, 0.000, 0.000, 19:58:51.758, 1541897931758
100, -162861.53, -162199.39, -162381.22, -162266.66, -162725.95, -162398.19, -162754.64, -162493.25, 0.000, 0.000, 0.000, 19:58:51.759, 1541897931759
101, -162872.03, -162204.33, -162386.78, -162250.22, -162726.28, -162396.97, -162752.59, -162489.38, 0.000, 0.000, 0.000, 19:58:51.759, 1541897931759
102, -162866.22, -162195.11, -162377.84, -162371.58, -162723.36, -162383.83, -162739.48, -162486.14, 0.000, 0.000, 0.000, 19:58:51.759, 1541897931759
103, -162855.86, -162198.58, -162371.69, -162408.17, -162723.73, -162376.80, -162733.25, -162489.83, 0.000, 0.000, 0.000, 19:58:51.759, 1541897931759
104, -162841.48, -162222.61, -162389.55, -162369.03, -162724.47, -162374.27, -162732.86, -162489.55, 0.102, 0.092, 0.982, 19:58:51.759, 1541897931759
105, -162852.84, -162205.63, -162388.34, -162338.84, -162726.22, -162376.56, -162734.31, -162489.78, 0.000, 0.000, 0.000, 19:58:51.759, 1541897931759
106, -162865.89, -162208.55, -162389.94, -162308.13, -162727.80, -162378.22, -162735.77, -162489.48, 0.000, 0.000, 0.000, 19:58:51.759, 1541897931759
107, -162863.19, -162206.92, -162389.48, -162268.27, -162725.00, -162376.75, -162735.73, -162488.17, 0.000, 0.000, 0.000, 19:58:51.760, 1541897931760
108, -162845.31, -162217.72, -162378.38, -162259.63, -162727.41, -162369.91, -162730.17, -162485.23, 0.000, 0.000, 0.000, 19:58:51.760, 1541897931760
109, -162837.92, -162203.61, -162369.95, -162390.22, -162724.06, -162359.02, -162718.89, -162485.86, 0.000, 0.000, 0.000, 19:58:51.760, 1541897931760
110, -162849.73, -162201.17, -162375.16, -162407.97, -162722.80, -162357.91, -162717.88, -162490.92, 0.000, 0.000, 0.000, 19:58:51.760, 1541897931760
111, -162848.44, -162199.70, -162374.58, -162370.59, -162722.38, -162355.72, -162716.53, -162488.38, 0.000, 0.000, 0.000, 19:58:51.760, 1541897931760
112, -162835.41, -162203.03, -162368.36, -162330.86, -162726.48, -162352.09, -162716.16, -162488.45, 0.000, 0.000, 0.000, 19:58:51.760, 1541897931760
113, -162836.30, -162201.89, -162371.25, -162298.30, -162728.38, -162353.98, -162718.84, -162490.78, 0.000, 0.000, 0.000, 19:58:51.760, 1541897931760
114, -162853.94, -162208.25, -162382.02, -162267.78, -162732.05, -162356.52, -162720.06, -162489.67, 0.102, 0.096, 0.986, 19:58:51.760, 1541897931760
115, -162848.66, -162212.55, -162393.16, -162250.77, -162731.73, -162349.30, -162713.61, -162489.05, 0.000, 0.000, 0.000, 19:58:51.761, 1541897931761
116, -162823.13, -162227.13, -162397.08, -162372.83, -162727.44, -162333.20, -162698.56, -162490.14, 0.000, 0.000, 0.000, 19:58:51.761, 1541897931761
117, -162816.00, -162215.34, -162386.45, -162403.48, -162727.11, -162330.13, -162697.31, -162489.64, 0.000, 0.000, 0.000, 19:58:51.761, 1541897931761
118, -162833.89, -162208.92, -162385.17, -162375.22, -162730.86, -162332.42, -162699.66, -162488.77, 0.000, 0.000, 0.000, 19:58:51.761, 1541897931761
119, -162837.23, -162210.58, -162388.13, -162341.30, -162731.36, -162331.81, -162699.84, -162487.83, 0.000, 0.000, 0.000, 19:58:51.761, 1541897931761
120, -162827.84, -162203.34, -162383.55, -162302.81, -162730.22, -162329.30, -162698.41, -162486.61, 0.000, 0.000, 0.000, 19:58:51.761, 1541897931761
121, -162819.88, -162198.42, -162382.09, -162264.86, -162729.97, -162329.92, -162700.84, -162490.34, 0.000, 0.000, 0.000, 19:58:51.761, 1541897931761
122, -162831.27, -162204.28, -162386.83, -162257.28, -162729.70, -162326.45, -162696.38, -162486.92, 0.000, 0.000, 0.000, 19:58:52.201, 1541897932201
123, -162824.55, -162194.47, -162377.69, -162378.91, -162727.58, -162314.00, -162683.02, -162489.64, 0.000, 0.000, 0.000, 19:58:52.203, 1541897932203
124, -162816.05, -162203.34, -162372.88, -162397.28, -162727.16, -162309.42, -162679.81, -162490.53, 0.106, 0.094, 0.984, 19:58:52.204, 1541897932204
125, -162805.42, -162222.00, -162370.55, -162360.58, -162724.77, -162309.89, -162683.28, -162493.58, 0.000, 0.000, 0.000, 19:58:52.205, 1541897932205
126, -162819.69, -162214.89, -162380.33, -162332.00, -162728.55, -162312.73, -162685.72, -162493.42, 0.000, 0.000, 0.000, 19:58:52.205, 1541897932205
127, -162829.23, -162214.77, -162385.69, -162300.45, -162730.19, -162313.52, -162685.98, -162492.23, 0.000, 0.000, 0.000, 19:58:52.206, 1541897932206
128, -162821.52, -162213.52, -162385.69, -162256.77, -162731.28, -162308.14, -162682.41, -162489.52, 0.000, 0.000, 0.000, 19:58:52.206, 1541897932206
129, -162794.20, -162239.06, -162422.66, -162308.58, -162733.70, -162293.38, -162669.64, -162491.97, 0.000, 0.000, 0.000, 19:58:52.206, 1541897932206
130, -162793.50, -162222.03, -162411.17, -162416.86, -162737.34, -162284.52, -162659.81, -162487.98, 0.000, 0.000, 0.000, 19:58:52.207, 1541897932207
131, -162806.09, -162212.17, -162394.11, -162399.92, -162737.61, -162286.27, -162661.00, -162486.56, 0.000, 0.000, 0.000, 19:58:52.207, 1541897932207
132, -162805.20, -162209.98, -162394.38, -162364.94, -162736.27, -162286.31, -162661.66, -162486.89, 0.000, 0.000, 0.000, 19:58:52.207, 1541897932207
133, -162794.81, -162202.63, -162390.31, -162327.69, -162733.81, -162286.20, -162663.94, -162490.52, 0.000, 0.000, 0.000, 19:58:52.208, 1541897932208
134, -162801.42, -162207.47, -162396.61, -162297.64, -162735.48, -162289.19, -162666.94, -162492.44, 0.098, 0.092, 0.976, 19:58:52.208, 1541897932208
135, -162815.84, -162216.89, -162405.17, -162264.72, -162738.44, -162290.25, -162667.70, -162492.13, 0.000, 0.000, 0.000, 19:58:52.208, 1541897932208
136, -162801.41, -162208.97, -162391.78, -162305.67, -162732.97, -162276.44, -162654.67, -162489.94, 0.000, 0.000, 0.000, 19:58:52.208, 1541897932208
137, -162781.30, -162217.88, -162378.64, -162403.56, -162728.31, -162266.16, -162646.44, -162484.45, 0.000, 0.000, 0.000, 19:58:52.208, 1541897932208
138, -162782.52, -162203.27, -162381.94, -162385.47, -162729.08, -162267.95, -162649.55, -162486.20, 0.000, 0.000, 0.000, 19:58:52.209, 1541897932209
139, -162801.25, -162211.36, -162394.17, -162359.42, -162733.69, -162271.63, -162651.69, -162485.89, 0.000, 0.000, 0.000, 19:58:52.209, 1541897932209
140, -162804.31, -162212.84, -162397.75, -162327.42, -162733.80, -162272.52, -162652.92, -162487.36, 0.000, 0.000, 0.000, 19:58:52.209, 1541897932209
141, -162795.94, -162206.61, -162395.41, -162290.33, -162734.11, -162271.89, -162654.83, -162489.06, 0.000, 0.000, 0.000, 19:58:52.209, 1541897932209
142, -162787.61, -162200.55, -162392.08, -162259.78, -162733.88, -162269.33, -162654.41, -162491.92, 0.000, 0.000, 0.000, 19:58:52.209, 1541897932209
143, -162791.86, -162199.16, -162389.08, -162365.56, -162728.66, -162258.23, -162642.00, -162494.31, 0.104, 0.090, 0.978, 19:58:52.210, 1541897932210
144, -162790.78, -162196.19, -162385.95, -162415.03, -162727.95, -162253.47, -162637.14, -162490.67, 0.000, 0.000, 0.000, 19:58:52.210, 1541897932210
145, -162782.61, -162213.91, -162382.64, -162378.13, -162728.06, -162252.16, -162637.45, -162489.84, 0.000, 0.000, 0.000, 19:58:52.210, 1541897932210
146, -162774.16, -162228.13, -162380.56, -162342.08, -162736.27, -162252.11, -162639.72, -162492.61, 0.000, 0.000, 0.000, 19:58:52.210, 1541897932210
147, -162790.86, -162214.41, -162391.19, -162315.09, -162741.17, -162254.22, -162641.33, -162493.00, 0.000, 0.000, 0.000, 19:58:52.210, 1541897932210
148, -162800.36, -162219.36, -162397.06, -162282.17, -162743.66, -162256.47, -162643.16, -162494.16, 0.000, 0.000, 0.000, 19:58:52.211, 1541897932211
149, -162790.09, -162215.95, -162394.36, -162261.34, -162737.64, -162249.83, -162637.41, -162490.89, 0.000, 0.000, 0.000, 19:58:52.212, 1541897932212
150, -162764.19, -162220.17, -162398.53, -162380.44, -162735.16, -162235.38, -162624.69, -162490.06, 0.000, 0.000, 0.000, 19:58:52.212, 1541897932212
151, -162772.97, -162207.56, -162388.53, -162415.95, -162736.61, -162234.14, -162621.83, -162486.69, 0.000, 0.000, 0.000, 19:58:52.213, 1541897932213
152, -162781.88, -162210.06, -162391.20, -162384.84, -162735.31, -162234.56, -162621.34, -162488.03, 0.000, 0.000, 0.000, 19:58:52.213, 1541897932213
153, -162777.17, -162206.14, -162389.19, -162348.06, -162731.06, -162232.42, -162620.80, -162490.16, 0.106, 0.090, 0.974, 19:58:52.213, 1541897932213
154, -162765.78, -162198.31, -162385.66, -162312.19, -162727.84, -162232.06, -162624.09, -162493.80, 0.000, 0.000, 0.000, 19:58:52.214, 1541897932214
155, -162776.11, -162205.20, -162393.83, -162283.42, -162731.16, -162234.95, -162627.95, -162495.83, 0.000, 0.000, 0.000, 19:58:52.215, 1541897932215
156, -162788.22, -162211.50, -162399.83, -162253.98, -162733.30, -162234.44, -162627.13, -162495.05, 0.000, 0.000, 0.000, 19:58:52.215, 1541897932215
157, -162771.66, -162208.80, -162383.83, -162342.08, -162729.13, -162218.31, -162612.38, -162495.23, 0.000, 0.000, 0.000, 19:58:52.215, 1541897932215
158, -162751.58, -162225.78, -162374.13, -162412.38, -162729.09, -162209.89, -162605.92, -162495.17, 0.000, 0.000, 0.000, 19:58:52.215, 1541897932215
159, -162755.20, -162203.97, -162400.81, -162384.91, -162729.28, -162211.23, -162607.73, -162495.70, 0.000, 0.000, 0.000, 19:58:52.215, 1541897932215
160, -162769.52, -162208.81, -162396.84, -162355.05, -162730.03, -162211.67, -162607.59, -162493.20, 0.000, 0.000, 0.000, 19:58:52.215, 1541897932215
161, -162769.42, -162207.09, -162392.91, -162319.53, -162728.66, -162210.56, -162606.56, -162491.80, 0.000, 0.000, 0.000, 19:58:52.216, 1541897932216
162, -162758.00, -162209.20, -162388.19, -162280.80, -162730.16, -162208.89, -162607.50, -162492.92, 0.000, 0.000, 0.000, 19:58:52.216, 1541897932216
163, -162752.30, -162206.98, -162385.69, -162260.52, -162729.59, -162205.67, -162605.84, -162494.45, 0.104, 0.086, 0.978, 19:58:52.216, 1541897932216
164, -162758.05, -162198.73, -162383.42, -162382.89, -162727.84, -162195.92, -162594.31, -162497.64, 0.000, 0.000, 0.000, 19:58:52.216, 1541897932216
165, -162757.23, -162203.27, -162382.09, -162417.98, -162727.02, -162192.34, -162590.58, -162495.98, 0.000, 0.000, 0.000, 19:58:52.216, 1541897932216
166, -162747.31, -162226.91, -162377.69, -162379.25, -162731.22, -162190.59, -162590.52, -162496.30, 0.000, 0.000, 0.000, 19:58:52.216, 1541897932216
167, -162740.86, -162212.45, -162376.83, -162342.91, -162731.64, -162190.63, -162592.03, -162498.61, 0.000, 0.000, 0.000, 19:58:52.217, 1541897932217
168, -162758.27, -162212.34, -162387.23, -162314.88, -162734.94, -162192.80, -162592.63, -162496.11, 0.000, 0.000, 0.000, 19:58:52.217, 1541897932217
169, -162763.36, -162214.69, -162390.61, -162280.83, -162734.27, -162192.80, -162592.73, -162495.55, 0.000, 0.000, 0.000, 19:58:52.217, 1541897932217
170, -162748.56, -162219.75, -162396.19, -162262.91, -162728.72, -162184.41, -162586.34, -162497.22, 0.000, 0.000, 0.000, 19:58:52.217, 1541897932217
171, -162723.02, -162241.11, -162415.69, -162386.89, -162730.55, -162169.09, -162572.59, -162496.33, 0.000, 0.000, 0.000, 19:58:52.217, 1541897932217
172, -162735.58, -162221.80, -162391.88, -162424.41, -162732.50, -162168.25, -162571.27, -162502.14, 0.000, 0.000, 0.000, 19:58:52.217, 1541897932217
173, -162744.19, -162219.14, -162394.94, -162392.92, -162733.09, -162169.14, -162572.75, -162501.77, 0.104, 0.082, 0.976, 19:58:52.217, 1541897932217
174, -162739.27, -162214.19, -162392.55, -162355.88, -162730.31, -162167.25, -162572.25, -162501.78, 0.000, 0.000, 0.000, 19:58:52.217, 1541897932217
175, -162728.50, -162206.98, -162389.03, -162319.84, -162727.78, -162168.16, -162575.11, -162506.11, 0.000, 0.000, 0.000, 19:58:52.218, 1541897932218
176, -162741.28, -162215.98, -162397.69, -162291.92, -162730.13, -162170.42, -162577.73, -162505.84, 0.000, 0.000, 0.000, 19:58:52.218, 1541897932218
177, -162750.52, -162221.44, -162403.05, -162259.23, -162731.27, -162169.72, -162576.86, -162502.78, 0.000, 0.000, 0.000, 19:58:52.218, 1541897932218
178, -162734.53, -162207.98, -162388.97, -162332.25, -162725.97, -162155.53, -162564.05, -162492.73, 0.000, 0.000, 0.000, 19:58:52.218, 1541897932218
179, -162715.02, -162220.59, -162377.42, -162413.00, -162723.06, -162148.06, -162559.30, -162499.88, 0.000, 0.000, 0.000, 19:58:52.219, 1541897932219
180, -162724.45, -162213.58, -162385.70, -162391.83, -162728.38, -162151.23, -162562.91, -162502.00, 0.000, 0.000, 0.000, 19:58:52.219, 1541897932219
181, -162739.30, -162218.05, -162395.05, -162363.30, -162731.28, -162153.00, -162564.97, -162501.25, 0.000, 0.000, 0.000, 19:58:52.219, 1541897932219
182, -162737.97, -162215.34, -162394.77, -162328.17, -162728.77, -162151.75, -162565.63, -162500.53, 0.000, 0.000, 0.000, 19:58:52.219, 1541897932219
183, -162725.98, -162207.31, -162390.61, -162291.58, -162724.98, -162151.70, -162566.89, -162503.45, 0.104, 0.082, 0.984, 19:58:52.219, 1541897932219
184, -162726.30, -162207.61, -162393.27, -162256.16, -162724.25, -162151.33, -162566.98, -162502.47, 0.000, 0.000, 0.000, 19:58:52.219, 1541897932219
185, -162730.33, -162208.22, -162389.42, -162331.33, -162723.52, -162131.23, -162555.67, -162496.11, 0.000, 0.000, 0.000, 19:58:52.219, 1541897932219
186, -162717.77, -162231.30, -162392.06, -162419.19, -162732.30, -161823.34, -162543.17, -162498.39, 0.000, 0.000, 0.000, 19:58:52.219, 1541897932219
187, -162690.08, -162267.41, -162429.78, -162374.05, -162736.92, -161566.09, -162526.61, -162495.03, 0.000, 0.000, 0.000, 19:58:52.222, 1541897932222
188, -162669.22, -162245.31, -162416.73, -162321.64, -162736.67, -161733.53, -162509.81, -162494.66, 0.000, 0.000, 0.000, 19:58:52.225, 1541897932225
189, -162668.75, -162216.80, -162394.11, -162271.58, -162731.89, -161931.25, -162492.53, -162490.50, 0.000, 0.000, 0.000, 19:58:52.226, 1541897932226
190, -162638.75, -162283.14, -162483.91, -162267.77, -162737.95, -162109.44, -162460.55, -162494.86, 0.000, 0.000, 0.000, 19:58:52.226, 1541897932226
191, -162591.30, -162304.34, -162478.31, -162380.98, -162736.56, -162274.83, -162421.78, -162489.69, 0.000, 0.000, 0.000, 19:58:52.227, 1541897932227
192, -162559.52, -162262.19, -162426.23, -162363.61, -162732.61, -162457.59, -162399.48, -162489.00, 0.102, 0.088, 0.982, 19:58:52.227, 1541897932227
193, -162557.45, -162213.52, -162383.58, -162317.16, -162726.97, -162686.78, -162381.64, -162487.25, 0.000, 0.000, 0.000, 19:58:52.228, 1541897932228
194, -162550.23, -162193.86, -162367.92, -162270.17, -162726.69, -163261.52, -162369.41, -162485.63, 0.000, 0.000, 0.000, 19:58:52.228, 1541897932228
195, -162534.48, -162240.75, -162418.77, -162247.19, -162725.97, -163551.70, -162359.92, -162481.95, 0.000, 0.000, 0.000, 19:58:52.229, 1541897932229
196, -162507.91, -162243.38, -162412.83, -162374.95, -162723.83, -163538.80, -162346.66, -162478.73, 0.000, 0.000, 0.000, 19:58:52.229, 1541897932229
197, -162520.28, -162203.78, -162376.41, -162422.83, -162724.58, -163537.09, -162344.94, -162474.09, 0.000, 0.000, 0.000, 19:58:52.229, 1541897932229
198, -162529.75, -162206.77, -162380.70, -162393.17, -162725.03, -163537.06, -162346.08, -162478.72, 0.000, 0.000, 0.000, 19:58:52.230, 1541897932230
199, -162524.42, -162202.47, -162378.00, -162356.05, -162724.97, -163532.75, -162345.16, -162486.98, 0.000, 0.000, 0.000, 19:58:52.231, 1541897932231
200, -162510.94, -162207.47, -162373.23, -162317.92, -162727.36, -163530.45, -162346.06, -162489.22, 0.000, 0.000, 0.000, 19:58:52.232, 1541897932232
201, -162522.45, -162209.31, -162381.81, -162289.19, -162732.56, -163532.02, -162348.06, -162489.28, 0.000, 0.000, 0.000, 19:58:52.232, 1541897932232
202, -162534.81, -162212.48, -162388.80, -162255.02, -162732.63, -163531.53, -162348.06, -162487.39, 0.102, 0.090, 0.988, 19:58:52.232, 1541897932232
203, -162521.19, -162207.36, -162380.30, -162289.64, -162725.09, -163518.89, -162337.45, -162483.30, 0.000, 0.000, 0.000, 19:58:52.232, 1541897932232
204, -162499.75, -162207.03, -162389.69, -162397.06, -162723.47, -163508.53, -162329.61, -162485.42, 0.000, 0.000, 0.000, 19:58:52.232, 1541897932232
205, -162506.28, -162204.13, -162382.67, -162384.77, -162727.75, -163509.44, -162331.30, -162485.05, 0.000, 0.000, 0.000, 19:58:52.233, 1541897932233
206, -162521.81, -162207.70, -162388.34, -162356.89, -162730.23, -163511.30, -162333.14, -162483.59, 0.000, 0.000, 0.000, 19:58:52.234, 1541897932234
207, -162520.00, -162204.97, -162387.08, -162321.14, -162727.89, -163509.64, -162333.03, -162482.58, 0.000, 0.000, 0.000, 19:58:52.234, 1541897932234
208, -162507.39, -162196.14, -162381.19, -162281.02, -162723.20, -163507.56, -162333.47, -162483.75, 0.000, 0.000, 0.000, 19:58:52.235, 1541897932235
209, -162504.75, -162193.95, -162380.81, -162253.92, -162724.88, -163505.38, -162331.89, -162486.81, 0.000, 0.000, 0.000, 19:58:52.235, 1541897932235
210, -162507.39, -162191.16, -162376.39, -162361.97, -162726.70, -163493.13, -162318.25, -162490.61, 0.000, 0.000, 0.000, 19:58:52.235, 1541897932235
211, -162503.70, -162188.47, -162373.19, -162403.88, -162722.97, -163487.11, -162313.47, -162491.05, 0.000, 0.000, 0.000, 19:58:52.235, 1541897932235
212, -162494.98, -162226.67, -162374.84, -162367.33, -162727.47, -163486.39, -162314.58, -162492.77, 0.104, 0.092, 0.986, 19:58:52.235, 1541897932235
213, -162491.56, -162224.53, -162396.61, -162331.80, -162737.64, -163486.00, -162315.72, -162493.88, 0.000, 0.000, 0.000, 19:58:52.235, 1541897932235
214, -162509.63, -162214.34, -162392.97, -162303.09, -162741.50, -163487.67, -162317.17, -162492.75, 0.000, 0.000, 0.000, 19:58:52.236, 1541897932236
215, -162512.83, -162214.66, -162391.92, -162265.48, -162739.63, -163486.67, -162316.89, -162492.06, 0.000, 0.000, 0.000, 19:58:52.236, 1541897932236
216, -162492.86, -162227.66, -162401.56, -162282.16, -162733.69, -163473.08, -162305.75, -162488.69, 0.000, 0.000, 0.000, 19:58:52.236, 1541897932236
217, -162470.59, -162234.97, -162409.83, -162412.69, -162733.59, -163458.17, -162293.27, -162489.67, 0.000, 0.000, 0.000, 19:58:52.236, 1541897932236
218, -162485.69, -162213.95, -162389.39, -162418.00, -162734.86, -163458.45, -162293.58, -162487.08, 0.000, 0.000, 0.000, 19:58:52.237, 1541897932237
219, -162492.48, -162215.72, -162392.77, -162386.47, -162734.91, -163459.33, -162294.95, -162487.25, 0.000, 0.000, 0.000, 19:58:52.239, 1541897932239
220, -162487.92, -162211.28, -162391.13, -162351.31, -162732.34, -163458.66, -162296.06, -162488.59, 0.000, 0.000, 0.000, 19:58:52.240, 1541897932240
221, -162478.30, -162204.34, -162389.19, -162316.00, -162731.06, -163459.70, -162299.34, -162493.17, 0.000, 0.000, 0.000, 19:58:52.240, 1541897932240
222, -162493.63, -162214.73, -162399.20, -162288.25, -162735.16, -163463.02, -162301.63, -162492.81, 0.106, 0.098, 0.980, 19:58:52.240, 1541897932240
223, -162501.09, -162217.75, -162402.72, -162253.59, -162734.47, -163461.41, -162300.53, -162491.05, 0.000, 0.000, 0.000, 19:58:52.240, 1541897932240
224, -162481.06, -162208.25, -162387.52, -162323.84, -162728.88, -163443.70, -162284.98, -162486.31, 0.000, 0.000, 0.000, 19:58:52.240, 1541897932240
225, -162458.64, -162228.08, -162396.92, -162407.77, -162731.22, -163433.42, -162277.66, -162490.72, 0.000, 0.000, 0.000, 19:58:52.241, 1541897932241
226, -162468.09, -162210.89, -162394.30, -162384.08, -162735.42, -163433.78, -162278.05, -162495.33, 0.000, 0.000, 0.000, 19:58:52.241, 1541897932241
227, -162482.05, -162213.41, -162395.97, -162354.38, -162736.50, -163435.14, -162279.19, -162494.56, 0.000, 0.000, 0.000, 19:58:52.241, 1541897932241
228, -162481.19, -162211.95, -162396.42, -162319.44, -162734.19, -163434.52, -162280.61, -162495.77, 0.000, 0.000, 0.000, 19:58:52.241, 1541897932241
229, -162469.45, -162203.41, -162392.64, -162281.42, -162731.31, -163433.67, -162283.31, -162498.88, 0.000, 0.000, 0.000, 19:58:52.244, 1541897932244
230, -162470.98, -162204.13, -162393.73, -162255.75, -162730.78, -163431.61, -162281.61, -162497.31, 0.000, 0.000, 0.000, 19:58:52.244, 1541897932244
231, -162472.28, -162200.14, -162389.06, -162367.30, -162729.09, -163419.44, -162268.83, -162489.88, 0.108, 0.096, 0.980, 19:58:52.244, 1541897932244
232, -162464.59, -162199.77, -162382.48, -162413.53, -162728.88, -163411.45, -162262.39, -162489.59, 0.000, 0.000, 0.000, 19:58:52.245, 1541897932245
233, -162452.67, -162215.56, -162377.19, -162377.06, -162729.95, -163409.59, -162263.41, -162490.27, 0.000, 0.000, 0.000, 19:58:52.245, 1541897932245
234, -162453.56, -162199.47, -162380.70, -162345.25, -162731.69, -163410.84, -162266.53, -162492.86, 0.000, 0.000, 0.000, 19:58:52.245, 1541897932245
235, -162471.88, -162208.38, -162392.48, -162318.75, -162735.63, -163413.75, -162267.78, -162491.91, 0.000, 0.000, 0.000, 19:58:52.245, 1541897932245
236, -162476.03, -162209.59, -162394.78, -162285.14, -162736.11, -163415.20, -162269.39, -162492.42, 0.000, 0.000, 0.000, 19:58:52.245, 1541897932245
237, -162461.75, -162210.61, -162386.06, -162256.81, -162730.75, -163409.86, -162265.86, -162489.47, 0.000, 0.000, 0.000, 19:58:52.246, 1541897932246
238, -162442.97, -162213.11, -162372.81, -162366.78, -162726.42, -163397.30, -162255.02, -162484.41, 0.000, 0.000, 0.000, 19:58:52.246, 1541897932246
239, -162456.83, -162201.98, -162380.19, -162411.14, -162727.13, -163395.88, -162251.55, -162490.16, 0.000, 0.000, 0.000, 19:58:52.246, 1541897932246
240, -162458.86, -162200.86, -162380.19, -162376.80, -162731.05, -163393.39, -162249.83, -162492.50, 0.000, 0.000, 0.000, 19:58:52.248, 1541897932248
241, -162450.22, -162201.00, -162375.73, -162340.92, -162731.25, -163390.73, -162249.09, -162492.11, 0.106, 0.088, 0.978, 19:58:52.249, 1541897932249
242, -162442.45, -162205.00, -162374.39, -162307.17, -162730.06, -163392.19, -162252.11, -162495.59, 0.000, 0.000, 0.000, 19:58:52.668, 1541897932668
243, -162460.05, -162207.98, -162386.84, -162280.14, -162734.53, -163395.05, -162255.16, -162496.19, 0.000, 0.000, 0.000, 19:58:52.668, 1541897932668
244, -162466.08, -162211.28, -162390.72, -162250.08, -162734.55, -163394.02, -162254.50, -162495.34, 0.000, 0.000, 0.000, 19:58:52.668, 1541897932668
245, -162445.95, -162223.38, -162395.03, -162342.44, -162732.19, -163378.30, -162239.66, -162490.98, 0.000, 0.000, 0.000, 19:58:52.669, 1541897932669
246, -162426.75, -162231.23, -162412.67, -162407.56, -162737.45, -163370.27, -162234.05, -162489.23, 0.000, 0.000, 0.000, 19:58:52.669, 1541897932669
247, -162439.33, -162210.11, -162394.00, -162381.38, -162739.42, -163371.52, -162235.02, -162488.22, 0.000, 0.000, 0.000, 19:58:52.669, 1541897932669
248, -162448.67, -162213.72, -162395.95, -162349.91, -162738.55, -163371.17, -162235.08, -162486.36, 0.000, 0.000, 0.000, 19:58:52.669, 1541897932669
249, -162445.34, -162209.98, -162394.45, -162312.86, -162735.16, -163369.72, -162234.56, -162486.63, 0.000, 0.000, 0.000, 19:58:52.669, 1541897932669
250, -162432.63, -162200.25, -162389.23, -162271.45, -162734.33, -163369.63, -162236.91, -162490.69, 0.000, 0.000, 0.000, 19:58:52.669, 1541897932669
251, -162432.56, -162197.55, -162387.20, -162298.80, -162735.42, -163362.44, -162229.53, -162495.13, 0.106, 0.092, 0.986, 19:58:52.676, 1541897932676
252, -162438.38, -162205.95, -162387.25, -162410.27, -162734.86, -163355.91, -162222.98, -162494.14, 0.000, 0.000, 0.000, 19:58:52.678, 1541897932678
253, -162435.86, -162209.86, -162386.09, -162394.11, -162735.72, -163354.34, -162222.08, -162492.73, 0.000, 0.000, 0.000, 19:58:52.680, 1541897932680
254, -162423.77, -162211.20, -162381.28, -162357.45, -162735.58, -163353.00, -162223.91, -162495.25, 0.000, 0.000, 0.000, 19:58:52.680, 1541897932680
255, -162428.31, -162223.19, -162385.53, -162326.05, -162739.78, -163354.05, -162226.45, -162495.52, 0.000, 0.000, 0.000, 19:58:52.680, 1541897932680
0, -162443.47, -162217.69, -162393.95, -162297.73, -162740.78, -163355.38, -162227.30, -162493.38, 0.000, 0.000, 0.000, 19:58:52.681, 1541897932681
1, -162440.53, -162216.27, -162393.47, -162260.06, -162738.31, -163352.08, -162225.09, -162490.84, 0.000, 0.000, 0.000, 19:58:52.681, 1541897932681
2, -162414.16, -162230.91, -162414.45, -162332.31, -162740.23, -163335.28, -162211.00, -162491.25, 0.000, 0.000, 0.000, 19:58:52.681, 1541897932681
3, -162403.13, -162215.81, -162403.05, -162426.77, -162742.36, -163326.63, -162203.50, -162492.53, 0.000, 0.000, 0.000, 19:58:52.681, 1541897932681
4, -162423.23, -162213.42, -162397.44, -162410.50, -162745.69, -163330.77, -162206.52, -162492.42, 0.000, 0.000, 0.000, 19:58:52.681, 1541897932681
5, -162426.44, -162214.30, -162399.80, -162378.09, -162744.25, -163331.30, -162208.64, -162493.42, 0.110, 0.090, 0.986, 19:58:52.681, 1541897932681
6, -162418.28, -162207.44, -162396.27, -162342.25, -162740.75, -163330.06, -162209.47, -162494.83, 0.000, 0.000, 0.000, 19:58:52.682, 1541897932682
7, -162413.80, -162204.75, -162396.44, -162310.39, -162740.72, -163331.50, -162213.31, -162497.42, 0.000, 0.000, 0.000, 19:58:52.683, 1541897932683
8, -162430.84, -162215.75, -162406.30, -162282.20, -162743.81, -163333.11, -162213.23, -162494.88, 0.000, 0.000, 0.000, 19:58:52.683, 1541897932683
9, -162428.53, -162214.22, -162402.98, -162268.86, -162740.86, -163326.67, -162206.78, -162491.19, 0.000, 0.000, 0.000, 19:58:52.683, 1541897932683
10, -162406.03, -162220.97, -162384.05, -162389.42, -162740.20, -163309.75, -162191.14, -162493.20, 0.000, 0.000, 0.000, 19:58:52.683, 1541897932683
11, -162392.89, -162201.22, -162378.28, -162414.78, -162739.80, -163307.47, -162190.59, -162495.19, 0.000, 0.000, 0.000, 19:58:52.684, 1541897932684
12, -162411.39, -162206.33, -162390.58, -162388.84, -162744.66, -163311.94, -162194.06, -162496.48, 0.000, 0.000, 0.000, 19:58:52.684, 1541897932684
13, -162420.58, -162211.36, -162396.53, -162358.22, -162746.22, -163312.80, -162195.89, -162496.78, 0.000, 0.000, 0.000, 19:58:52.684, 1541897932684
14, -162415.53, -162206.41, -162394.97, -162322.09, -162742.75, -163310.98, -162196.25, -162496.89, 0.110, 0.086, 0.982, 19:58:52.684, 1541897932684
15, -162404.47, -162199.27, -162391.36, -162285.75, -162740.16, -163311.19, -162198.69, -162499.97, 0.000, 0.000, 0.000, 19:58:52.684, 1541897932684
16, -162414.50, -162205.27, -162396.64, -162255.44, -162740.56, -163310.48, -162197.02, -162496.66, 0.000, 0.000, 0.000, 19:58:52.684, 1541897932684
17, -162412.53, -162207.88, -162389.59, -162348.69, -162737.77, -163298.64, -162184.50, -162490.73, 0.000, 0.000, 0.000, 19:58:52.684, 1541897932684
18, -162402.22, -162216.75, -162390.02, -162414.44, -162738.55, -163290.53, -162177.14, -162489.08, 0.000, 0.000, 0.000, 19:58:52.685, 1541897932685
19, -162388.23, -162213.94, -162402.55, -162380.66, -162738.95, -163289.34, -162178.80, -162491.34, 0.000, 0.000, 0.000, 19:58:52.685, 1541897932685
20, -162399.14, -162206.89, -162394.94, -162351.91, -162744.20, -163293.25, -162183.05, -162493.41, 0.000, 0.000, 0.000, 19:58:52.685, 1541897932685
21, -162414.78, -162214.92, -162403.41, -162323.06, -162747.42, -163295.61, -162184.91, -162493.00, 0.000, 0.000, 0.000, 19:58:52.685, 1541897932685
22, -162413.17, -162212.59, -162403.44, -162286.11, -162744.92, -163293.70, -162184.50, -162492.39, 0.000, 0.000, 0.000, 19:58:52.685, 1541897932685
23, -162394.69, -162220.39, -162393.11, -162262.50, -162740.14, -163286.47, -162180.36, -162492.11, 0.000, 0.000, 0.000, 19:58:52.685, 1541897932685
24, -162380.77, -162228.64, -162380.86, -162382.59, -162738.89, -163272.00, -162166.48, -162492.86, 0.110, 0.094, 0.984, 19:58:52.685, 1541897932685
25, -162392.92, -162210.25, -162386.27, -162423.91, -162738.06, -163270.38, -162163.52, -162491.08, 0.000, 0.000, 0.000, 19:58:52.686, 1541897932686
26, -162393.20, -162208.30, -162387.23, -162389.58, -162736.27, -163269.67, -162164.06, -162489.88, 0.000, 0.000, 0.000, 19:58:52.686, 1541897932686
27, -162382.83, -162200.59, -162383.03, -162350.92, -162732.67, -163269.08, -162165.64, -162492.08, 0.000, 0.000, 0.000, 19:58:52.686, 1541897932686
28, -162383.25, -162201.16, -162386.48, -162319.17, -162734.55, -163272.42, -162170.30, -162496.53, 0.000, 0.000, 0.000, 19:58:52.686, 1541897932686
29, -162402.94, -162213.47, -162398.47, -162291.14, -162739.56, -163275.39, -162173.02, -162495.66, 0.000, 0.000, 0.000, 19:58:52.686, 1541897932686
30, -162399.23, -162213.84, -162398.11, -162270.44, -162742.31, -163268.41, -162160.38, -162494.58, 0.000, 0.000, 0.000, 19:58:52.686, 1541897932686
31, -162338.23, -162257.30, -162446.27, -162379.38, -162743.73, -163244.64, -161994.64, -162500.44, 0.000, 0.000, 0.000, 19:58:52.686, 1541897932686
32, -162163.63, -162311.77, -162458.38, -162382.33, -162742.20, -163210.06, -161975.78, -162502.30, 0.000, 0.000, 0.000, 19:58:52.687, 1541897932687
33, -162253.25, -162284.98, -162443.52, -162309.58, -162739.69, -163169.81, -162216.97, -162500.06, 0.000, 0.000, 0.000, 19:58:52.688, 1541897932688
34, -162434.13, -162345.36, -162540.22, -162256.89, -162739.73, -163120.33, -162557.44, -162498.00, 0.108, 0.092, 0.986, 19:58:52.689, 1541897932689
35, -162727.78, -162303.39, -162473.22, -162364.94, -162734.13, -163076.78, -162890.48, -162492.38, 0.000, 0.000, 0.000, 19:58:52.689, 1541897932689
36, -162888.36, -162235.59, -162394.92, -162393.89, -162732.16, -163068.70, -162923.25, -162488.89, 0.000, 0.000, 0.000, 19:58:52.690, 1541897932690
37, -162907.83, -162216.03, -162385.50, -162367.56, -162734.94, -163071.81, -162924.09, -162487.98, 0.000, 0.000, 0.000, 19:58:52.690, 1541897932690
38, -162916.09, -162217.53, -162391.75, -162336.89, -162735.48, -163073.11, -162925.25, -162487.81, 0.000, 0.000, 0.000, 19:58:52.693, 1541897932693
39, -162910.89, -162212.95, -162390.16, -162301.36, -162732.34, -163071.42, -162924.09, -162487.41, 0.000, 0.000, 0.000, 19:58:52.693, 1541897932693
40, -162896.20, -162201.80, -162382.25, -162260.03, -162732.42, -163069.53, -162922.94, -162489.06, 0.000, 0.000, 0.000, 19:58:52.693, 1541897932693
41, -162896.31, -162198.02, -162377.75, -162318.72, -162732.27, -163059.80, -162912.06, -162490.92, 0.000, 0.000, 0.000, 19:58:52.693, 1541897932693
42, -162898.95, -162197.34, -162376.92, -162416.53, -162729.95, -163052.14, -162904.17, -162488.89, 0.000, 0.000, 0.000, 19:58:52.693, 1541897932693
43, -162895.44, -162199.70, -162377.27, -162391.34, -162727.22, -163050.73, -162903.06, -162487.39, 0.000, 0.000, 0.000, 19:58:52.694, 1541897932694
44, -162883.27, -162231.77, -162396.69, -162354.06, -162733.56, -163050.25, -162905.34, -162490.97, 0.112, 0.094, 0.978, 19:58:52.694, 1541897932694
45, -162890.34, -162218.25, -162395.61, -162324.16, -162738.47, -163051.98, -162907.47, -162491.95, 0.000, 0.000, 0.000, 19:58:52.694, 1541897932694
46, -162905.91, -162219.13, -162398.19, -162296.48, -162741.30, -163054.22, -162908.94, -162491.52, 0.000, 0.000, 0.000, 19:58:52.694, 1541897932694
47, -162902.77, -162216.27, -162395.56, -162256.72, -162738.16, -163051.41, -162906.19, -162490.22, 0.000, 0.000, 0.000, 19:58:52.694, 1541897932694
48, -162875.97, -162221.63, -162384.09, -162299.78, -162732.63, -163036.28, -162893.20, -162488.45, 0.000, 0.000, 0.000, 19:58:52.694, 1541897932694
49, -162867.81, -162206.02, -162396.58, -162411.84, -162730.13, -163027.63, -162885.47, -162483.41, 0.000, 0.000, 0.000, 19:58:52.694, 1541897932694
50, -162884.47, -162207.55, -162390.69, -162399.14, -162732.27, -163029.30, -162886.30, -162481.28, 0.000, 0.000, 0.000, 19:58:52.695, 1541897932695
51, -162884.98, -162206.52, -162390.64, -162364.98, -162730.91, -163029.11, -162886.77, -162480.97, 0.000, 0.000, 0.000, 19:58:52.695, 1541897932695
52, -162876.64, -162199.70, -162388.41, -162329.98, -162728.66, -163029.28, -162889.30, -162484.14, 0.000, 0.000, 0.000, 19:58:52.695, 1541897932695
53, -162874.94, -162199.34, -162391.14, -162299.19, -162730.11, -163032.02, -162893.39, -162488.59, 0.000, 0.000, 0.000, 19:58:52.698, 1541897932698
54, -162893.61, -162212.03, -162402.22, -162270.75, -162734.47, -163034.27, -162894.20, -162487.05, 0.104, 0.092, 0.982, 19:58:52.698, 1541897932698
55, -162888.69, -162211.81, -162396.06, -162267.22, -162730.84, -163025.69, -162887.34, -162483.78, 0.000, 0.000, 0.000, 19:58:52.698, 1541897932698
56, -162863.14, -162230.50, -162380.52, -162388.80, -162730.22, -163007.84, -162870.88, -162483.92, 0.000, 0.000, 0.000, 19:58:52.699, 1541897932699
57, -162851.92, -162218.14, -162397.47, -162398.98, -162731.25, -163005.25, -162869.48, -162484.34, 0.000, 0.000, 0.000, 19:58:52.699, 1541897932699
58, -162869.42, -162211.61, -162393.84, -162370.89, -162736.00, -163007.52, -162870.92, -162483.08, 0.000, 0.000, 0.000, 19:58:52.699, 1541897932699
59, -162876.16, -162213.47, -162396.08, -162340.09, -162736.77, -163008.50, -162872.08, -162482.67, 0.000, 0.000, 0.000, 19:58:52.699, 1541897932699
60, -162871.36, -162208.89, -162395.70, -162304.23, -162733.75, -163008.50, -162873.13, -162484.23, 0.000, 0.000, 0.000, 19:58:52.699, 1541897932699
61, -162861.38, -162202.78, -162393.75, -162267.31, -162732.30, -163010.31, -162876.69, -162488.97, 0.000, 0.000, 0.000, 19:58:52.699, 1541897932699
62, -162869.42, -162206.00, -162396.58, -162266.48, -162734.58, -163006.13, -162871.39, -162493.64, 0.000, 0.000, 0.000, 19:58:52.699, 1541897932699
63, -162863.39, -162199.83, -162388.08, -162392.22, -162734.23, -162993.19, -162857.75, -162495.41, 0.104, 0.084, 0.986, 19:58:52.700, 1541897932700
64, -162854.31, -162221.17, -162382.02, -162402.41, -162733.25, -162987.06, -162853.17, -162490.41, 0.000, 0.000, 0.000, 19:58:52.700, 1541897932700
65, -162841.80, -162234.45, -162376.00, -162364.27, -162734.38, -162985.66, -162853.98, -162493.31, 0.000, 0.000, 0.000, 19:58:52.700, 1541897932700
66, -162853.17, -162215.48, -162384.13, -162335.06, -162737.33, -162988.53, -162856.28, -162494.30, 0.000, 0.000, 0.000, 19:58:52.700, 1541897932700
67, -162866.63, -162220.70, -162392.81, -162306.94, -162739.48, -162991.00, -162858.25, -162493.75, 0.000, 0.000, 0.000, 19:58:52.700, 1541897932700
68, -162865.52, -162219.09, -162392.77, -162269.23, -162737.77, -162990.56, -162858.98, -162493.91, 0.000, 0.000, 0.000, 19:58:52.700, 1541897932700
69, -162844.80, -162222.55, -162400.48, -162273.03, -162735.05, -162981.45, -162851.92, -162494.88, 0.000, 0.000, 0.000, 19:58:52.700, 1541897932700
70, -162837.61, -162218.72, -162390.06, -162407.55, -162735.47, -162970.00, -162839.94, -162490.63, 0.000, 0.000, 0.000, 19:58:52.701, 1541897932701
71, -162850.88, -162213.52, -162388.03, -162419.44, -162735.92, -162970.03, -162839.20, -162487.66, 0.000, 0.000, 0.000, 19:58:52.701, 1541897932701
72, -162848.30, -162210.72, -162386.69, -162383.94, -162732.47, -162966.77, -162837.84, -162492.06, 0.000, 0.000, 0.000, 19:58:52.701, 1541897932701
73, -162834.94, -162207.86, -162381.42, -162345.19, -162734.03, -162964.59, -162837.86, -162501.45, 0.106, 0.090, 0.984, 19:58:52.701, 1541897932701
74, -162836.63, -162217.31, -162384.44, -162312.42, -162739.80, -162966.77, -162840.92, -162503.06, 0.000, 0.000, 0.000, 19:58:52.701, 1541897932701
75, -162855.70, -162220.28, -162395.61, -162285.89, -162743.38, -162970.00, -162843.22, -162502.97, 0.000, 0.000, 0.000, 19:58:52.701, 1541897932701
76, -162854.73, -162220.34, -162395.45, -162256.34, -162740.94, -162967.14, -162840.83, -162501.52, 0.000, 0.000, 0.000, 19:58:52.701, 1541897932701
77, -162829.53, -162231.61, -162398.77, -162358.23, -162736.41, -162950.97, -162826.84, -162493.31, 0.000, 0.000, 0.000, 19:58:52.702, 1541897932702
78, -162818.91, -162223.09, -162389.58, -162424.75, -162735.61, -162946.80, -162823.78, -162491.50, 0.000, 0.000, 0.000, 19:58:52.702, 1541897932702
79, -162837.64, -162219.19, -162393.00, -162401.88, -162738.94, -162949.95, -162825.28, -162490.16, 0.000, 0.000, 0.000, 19:58:52.702, 1541897932702
80, -162840.88, -162220.11, -162394.89, -162369.45, -162737.22, -162949.28, -162824.61, -162488.89, 0.000, 0.000, 0.000, 19:58:52.702, 1541897932702
81, -162832.92, -162214.30, -162391.61, -162333.41, -162734.86, -162948.30, -162825.25, -162490.25, 0.000, 0.000, 0.000, 19:58:52.702, 1541897932702
82, -162826.03, -162209.94, -162391.39, -162299.94, -162733.66, -162949.84, -162829.08, -162494.81, 0.000, 0.000, 0.000, 19:58:52.702, 1541897932702
83, -162843.81, -162222.27, -162402.78, -162272.27, -162738.22, -162952.61, -162832.00, -162494.31, 0.108, 0.090, 0.980, 19:58:52.703, 1541897932703
84, -162845.06, -162220.17, -162401.83, -162265.48, -162738.17, -162947.81, -162827.36, -162494.98, 0.000, 0.000, 0.000, 19:58:52.703, 1541897932703
85, -162824.55, -162215.81, -162391.03, -162388.50, -162736.05, -162932.23, -162812.45, -162490.61, 0.000, 0.000, 0.000, 19:58:52.703, 1541897932703
86, -162809.77, -162236.05, -162405.80, -162407.41, -162741.23, -162928.16, -162810.44, -162494.81, 0.000, 0.000, 0.000, 19:58:52.703, 1541897932703
87, -162823.73, -162221.28, -162399.33, -162379.52, -162744.03, -162929.84, -162811.98, -162494.88, 0.000, 0.000, 0.000, 19:58:52.705, 1541897932705
88, -162833.22, -162222.34, -162402.19, -162348.73, -162743.66, -162929.45, -162812.52, -162493.33, 0.000, 0.000, 0.000, 19:58:52.707, 1541897932707
89, -162829.30, -162218.25, -162400.73, -162313.64, -162739.84, -162927.81, -162811.75, -162492.80, 0.000, 0.000, 0.000, 19:58:52.708, 1541897932708
90, -162817.34, -162210.30, -162396.95, -162274.59, -162737.28, -162928.88, -162813.91, -162496.75, 0.000, 0.000, 0.000, 19:58:52.708, 1541897932708
91, -162821.64, -162210.89, -162397.89, -162276.88, -162735.89, -162925.34, -162809.92, -162498.45, 0.000, 0.000, 0.000, 19:58:52.708, 1541897932708
92, -162824.88, -162208.92, -162395.30, -162401.91, -162736.16, -162917.23, -162801.03, -162493.80, 0.000, 0.000, 0.000, 19:58:52.708, 1541897932708
93, -162820.52, -162205.48, -162393.13, -162405.89, -162736.20, -162914.34, -162798.72, -162491.13, 0.110, 0.088, 0.982, 19:58:52.709, 1541897932709
94, -162808.22, -162218.30, -162389.42, -162368.56, -162737.38, -162912.73, -162800.64, -162494.19, 0.000, 0.000, 0.000, 19:58:52.709, 1541897932709
95, -162813.28, -162224.84, -162394.78, -162338.23, -162738.84, -162915.13, -162803.33, -162495.17, 0.000, 0.000, 0.000, 19:58:52.709, 1541897932709
96, -162828.72, -162222.42, -162403.13, -162309.84, -162740.83, -162916.58, -162804.11, -162493.11, 0.000, 0.000, 0.000, 19:58:52.709, 1541897932709
97, -162827.11, -162223.91, -162401.88, -162270.33, -162739.63, -162915.17, -162802.81, -162492.97, 0.000, 0.000, 0.000, 19:58:52.709, 1541897932709
98, -162802.44, -162252.47, -162411.48, -162301.31, -162744.41, -162901.20, -162790.55, -162502.03, 0.000, 0.000, 0.000, 19:58:52.709, 1541897932709
99, -162789.81, -162229.78, -162419.69, -162414.86, -162748.20, -162889.45, -162780.47, -162499.33, 0.000, 0.000, 0.000, 19:58:52.709, 1541897932709
100, -162808.88, -162223.66, -162405.44, -162408.16, -162751.92, -162891.89, -162782.45, -162497.75, 0.000, 0.000, 0.000, 19:58:52.710, 1541897932710
101, -162811.16, -162225.25, -162406.27, -162375.30, -162751.25, -162892.59, -162783.53, -162497.47, 0.000, 0.000, 0.000, 19:58:52.711, 1541897932711
102, -162802.19, -162218.86, -162402.98, -162337.89, -162748.33, -162892.20, -162784.55, -162500.23, 0.108, 0.090, 0.982, 19:58:52.711, 1541897932711
103, -162797.98, -162216.03, -162403.17, -162305.20, -162747.56, -162894.61, -162787.91, -162504.27, 0.000, 0.000, 0.000, 19:58:52.711, 1541897932711
104, -162814.53, -162226.27, -162412.59, -162274.33, -162749.77, -162895.81, -162788.55, -162501.45, 0.000, 0.000, 0.000, 19:58:52.711, 1541897932711
105, -162807.80, -162217.84, -162405.09, -162303.80, -162743.73, -162885.11, -162779.28, -162500.00, 0.000, 0.000, 0.000, 19:58:52.712, 1541897932712
106, -162788.67, -162220.16, -162390.27, -162416.69, -162739.89, -162872.47, -162767.00, -162500.73, 0.000, 0.000, 0.000, 19:58:52.712, 1541897932712
107, -162778.55, -162234.91, -162387.45, -162402.22, -162740.63, -162871.17, -162768.17, -162501.92, 0.000, 0.000, 0.000, 19:58:53.166, 1541897933166
108, -162796.89, -162228.31, -162399.33, -162375.16, -162744.66, -162873.88, -162770.78, -162502.47, 0.000, 0.000, 0.000, 19:58:53.167, 1541897933167
109, -162804.98, -162228.63, -162404.28, -162343.31, -162745.39, -162874.41, -162771.50, -162502.19, 0.000, 0.000, 0.000, 19:58:53.167, 1541897933167
110, -162799.33, -162223.56, -162401.83, -162307.28, -162742.73, -162873.05, -162771.64, -162502.23, 0.000, 0.000, 0.000, 19:58:53.167, 1541897933167
111, -162784.95, -162212.91, -162395.45, -162266.11, -162744.98, -162870.98, -162772.42, -162504.28, 0.000, 0.000, 0.000, 19:58:53.167, 1541897933167
112, -162784.06, -162208.09, -162389.48, -162335.31, -162742.98, -162858.02, -162759.70, -162501.17, 0.108, 0.090, 0.984, 19:58:53.167, 1541897933167
113, -162785.98, -162207.13, -162387.08, -162431.22, -162739.17, -162850.98, -162751.86, -162501.36, 0.000, 0.000, 0.000, 19:58:53.167, 1541897933167
114, -162780.39, -162223.23, -162389.53, -162402.88, -162740.72, -162848.91, -162749.86, -162500.17, 0.000, 0.000, 0.000, 19:58:53.168, 1541897933168
115, -162766.94, -162235.92, -162405.84, -162363.77, -162741.80, -162847.77, -162750.83, -162502.78, 0.000, 0.000, 0.000, 19:58:53.168, 1541897933168
116, -162776.81, -162220.08, -162398.66, -162333.88, -162745.33, -162851.19, -162753.16, -162504.19, 0.000, 0.000, 0.000, 19:58:53.168, 1541897933168
117, -162791.39, -162226.81, -162405.83, -162304.38, -162748.36, -162853.22, -162754.94, -162503.70, 0.000, 0.000, 0.000, 19:58:53.168, 1541897933168
118, -162786.19, -162226.70, -162407.28, -162271.33, -162744.83, -162847.86, -162751.03, -162501.17, 0.000, 0.000, 0.000, 19:58:53.168, 1541897933168
119, -162756.48, -162256.50, -162430.70, -162369.34, -162745.48, -162830.75, -162735.63, -162498.41, 0.000, 0.000, 0.000, 19:58:53.169, 1541897933169
120, -162751.36, -162225.17, -162405.11, -162428.36, -162746.20, -162823.89, -162730.02, -162499.39, 0.000, 0.000, 0.000, 19:58:53.169, 1541897933169
121, -162766.78, -162223.77, -162404.39, -162401.11, -162748.03, -162824.63, -162729.61, -162505.89, 0.000, 0.000, 0.000, 19:58:53.169, 1541897933169
122, -162767.34, -162223.41, -162404.86, -162366.44, -162746.20, -162824.72, -162729.91, -162505.09, 0.114, 0.094, 0.982, 19:58:53.169, 1541897933169
123, -162756.97, -162227.70, -162400.66, -162329.38, -162746.11, -162823.41, -162731.88, -162506.75, 0.000, 0.000, 0.000, 19:58:53.169, 1541897933169
124, -162757.03, -162227.19, -162403.88, -162297.55, -162750.88, -162825.20, -162736.09, -162510.14, 0.000, 0.000, 0.000, 19:58:53.169, 1541897933169
125, -162773.28, -162231.45, -162412.94, -162269.28, -162752.30, -162825.56, -162735.17, -162508.06, 0.000, 0.000, 0.000, 19:58:53.170, 1541897933170
126, -162762.47, -162218.30, -162401.31, -162353.88, -162746.42, -162811.64, -162721.66, -162509.16, 0.000, 0.000, 0.000, 19:58:53.170, 1541897933170
127, -162745.77, -162219.41, -162395.30, -162424.17, -162741.55, -162804.20, -162715.42, -162509.48, 0.000, 0.000, 0.000, 19:58:53.170, 1541897933170
128, -162737.66, -162227.53, -162414.86, -162393.59, -162741.75, -162803.28, -162716.58, -162510.44, 0.000, 0.000, 0.000, 19:58:53.170, 1541897933170
129, -162755.39, -162225.25, -162411.28, -162367.52, -162744.63, -162805.09, -162718.09, -162509.56, 0.000, 0.000, 0.000, 19:58:53.170, 1541897933170
130, -162760.95, -162226.50, -162412.52, -162335.48, -162744.75, -162805.94, -162719.64, -162509.52, 0.000, 0.000, 0.000, 19:58:53.170, 1541897933170
131, -162753.75, -162220.55, -162409.41, -162298.67, -162741.95, -162805.05, -162720.27, -162510.14, 0.000, 0.000, 0.000, 19:58:53.172, 1541897933172
132, -162742.00, -162220.02, -162404.50, -162271.22, -162744.05, -162803.91, -162720.77, -162512.84, 0.110, 0.094, 0.982, 19:58:53.173, 1541897933173
133, -162744.36, -162223.45, -162401.64, -162384.84, -162746.20, -162793.03, -162708.47, -162508.67, 0.000, 0.000, 0.000, 19:58:53.173, 1541897933173
134, -162748.83, -162215.81, -162402.98, -162427.31, -162743.98, -162789.72, -162704.80, -162506.81, 0.000, 0.000, 0.000, 19:58:53.173, 1541897933173
135, -162742.64, -162219.81, -162400.06, -162391.14, -162743.98, -162787.30, -162703.59, -162505.69, 0.000, 0.000, 0.000, 19:58:53.173, 1541897933173
136, -162728.11, -162232.53, -162393.38, -162351.31, -162748.09, -162785.64, -162703.91, -162506.31, 0.000, 0.000, 0.000, 19:58:53.173, 1541897933173
137, -162739.94, -162222.97, -162401.20, -162322.09, -162750.52, -162787.22, -162705.58, -162506.30, 0.000, 0.000, 0.000, 19:58:53.173, 1541897933173
138, -162750.75, -162227.22, -162407.56, -162288.66, -162751.67, -162787.13, -162706.48, -162505.45, 0.000, 0.000, 0.000, 19:58:53.174, 1541897933174
139, -162736.75, -162237.42, -162410.09, -162297.44, -162749.61, -162775.59, -162695.70, -162510.78, 0.000, 0.000, 0.000, 19:58:53.174, 1541897933174
140, -162710.84, -162235.58, -162409.67, -162422.72, -162746.13, -162761.58, -162684.39, -162514.44, 0.000, 0.000, 0.000, 19:58:53.174, 1541897933174
141, -162717.13, -162214.11, -162418.63, -162428.22, -162746.53, -162761.39, -162684.42, -162513.36, 0.000, 0.000, 0.000, 19:58:53.174, 1541897933174
142, -162731.63, -162221.77, -162411.25, -162399.91, -162748.66, -162763.00, -162685.63, -162511.97, 0.114, 0.092, 0.986, 19:58:53.174, 1541897933174
143, -162729.80, -162221.38, -162409.06, -162364.86, -162748.13, -162761.42, -162685.20, -162511.39, 0.000, 0.000, 0.000, 19:58:53.174, 1541897933174
144, -162716.06, -162233.03, -162403.17, -162325.63, -162747.45, -162758.84, -162685.92, -162511.70, 0.000, 0.000, 0.000, 19:58:53.174, 1541897933174
145, -162717.92, -162235.03, -162406.63, -162292.64, -162747.25, -162759.97, -162688.02, -162512.69, 0.000, 0.000, 0.000, 19:58:53.174, 1541897933174
146, -162732.16, -162231.19, -162412.84, -162269.39, -162748.52, -162758.09, -162685.22, -162507.55, 0.000, 0.000, 0.000, 19:58:53.175, 1541897933175
147, -162719.83, -162216.80, -162400.53, -162371.41, -162744.97, -162744.39, -162671.03, -162504.95, 0.000, 0.000, 0.000, 19:58:53.175, 1541897933175
148, -162705.41, -162226.52, -162392.38, -162411.72, -162746.22, -162739.30, -162667.45, -162513.50, 0.000, 0.000, 0.000, 19:58:53.175, 1541897933175
149, -162702.61, -162228.75, -162392.64, -162379.70, -162750.05, -162741.08, -162670.11, -162515.38, 0.000, 0.000, 0.000, 19:58:53.175, 1541897933175
150, -162721.61, -162227.77, -162403.09, -162352.42, -162752.91, -162744.03, -162671.77, -162514.08, 0.000, 0.000, 0.000, 19:58:53.175, 1541897933175
151, -162724.16, -162228.64, -162405.22, -162319.09, -162752.36, -162743.30, -162671.98, -162512.91, 0.110, 0.090, 0.986, 19:58:53.175, 1541897933175
152, -162712.38, -162225.98, -162399.52, -162275.41, -162749.58, -162738.16, -162669.59, -162510.66, 0.000, 0.000, 0.000, 19:58:53.175, 1541897933175
153, -162692.63, -162246.75, -162407.14, -162333.31, -162747.56, -162725.97, -162659.03, -162507.66, 0.000, 0.000, 0.000, 19:58:53.175, 1541897933175
154, -162700.80, -162230.16, -162406.45, -162436.64, -162745.34, -162718.97, -162650.58, -162505.09, 0.000, 0.000, 0.000, 19:58:53.176, 1541897933176
155, -162706.44, -162225.25, -162401.09, -162414.59, -162749.06, -162719.73, -162650.89, -162504.70, 0.000, 0.000, 0.000, 19:58:53.176, 1541897933176
156, -162700.72, -162221.98, -162398.67, -162377.39, -162749.22, -162718.86, -162651.97, -162505.56, 0.000, 0.000, 0.000, 19:58:53.176, 1541897933176
157, -162690.86, -162229.48, -162396.06, -162342.09, -162751.67, -162719.33, -162655.03, -162509.58, 0.000, 0.000, 0.000, 19:58:53.176, 1541897933176
158, -162705.98, -162232.67, -162406.47, -162313.89, -162756.92, -162722.13, -162656.34, -162509.22, 0.000, 0.000, 0.000, 19:58:53.176, 1541897933176
159, -162711.63, -162233.00, -162409.72, -162278.94, -162756.55, -162720.56, -162655.20, -162511.23, 0.000, 0.000, 0.000, 19:58:53.176, 1541897933176
160, -162691.45, -162235.91, -162412.83, -162347.95, -162750.84, -162703.27, -162639.78, -162511.39, 0.000, 0.000, 0.000, 19:58:53.177, 1541897933177
161, -162670.20, -162240.44, -162397.95, -162420.31, -162750.83, -162693.67, -162632.50, -162514.23, 0.110, 0.086, 0.982, 19:58:53.177, 1541897933177
162, -162681.44, -162222.83, -162395.66, -162396.55, -162752.86, -162696.22, -162633.81, -162513.69, 0.000, 0.000, 0.000, 19:58:53.177, 1541897933177
163, -162694.13, -162229.53, -162404.31, -162368.47, -162754.58, -162697.67, -162635.44, -162512.95, 0.000, 0.000, 0.000, 19:58:53.177, 1541897933177
164, -162692.31, -162226.94, -162405.06, -162334.30, -162752.97, -162697.58, -162635.98, -162513.42, 0.000, 0.000, 0.000, 19:58:53.177, 1541897933177
165, -162680.48, -162218.70, -162400.61, -162296.56, -162749.95, -162698.20, -162639.27, -162517.11, 0.000, 0.000, 0.000, 19:58:53.177, 1541897933177
166, -162684.42, -162219.88, -162403.02, -162269.44, -162750.00, -162696.89, -162639.20, -162515.45, 0.000, 0.000, 0.000, 19:58:53.179, 1541897933179
167, -162686.09, -162217.27, -162398.63, -162370.80, -162749.30, -162685.25, -162626.81, -162509.88, 0.000, 0.000, 0.000, 19:58:53.180, 1541897933180
168, -162677.22, -162224.39, -162391.45, -162421.45, -162746.64, -162677.47, -162618.45, -162506.59, 0.000, 0.000, 0.000, 19:58:53.180, 1541897933180
169, -162664.69, -162244.16, -162405.69, -162386.06, -162747.67, -162675.19, -162618.34, -162506.91, 0.000, 0.000, 0.000, 19:58:53.181, 1541897933181
170, -162664.61, -162241.89, -162405.98, -162353.19, -162755.31, -162675.30, -162620.45, -162508.64, 0.000, 0.000, 0.000, 19:58:53.181, 1541897933181
171, -162681.11, -162235.38, -162407.19, -162325.78, -162757.95, -162677.73, -162621.52, -162512.94, 0.110, 0.090, 0.982, 19:58:53.181, 1541897933181
172, -162683.72, -162236.02, -162409.25, -162289.47, -162757.22, -162677.75, -162622.55, -162514.91, 0.000, 0.000, 0.000, 19:58:53.181, 1541897933181
173, -162665.89, -162238.44, -162415.73, -162283.25, -162752.97, -162669.22, -162615.84, -162512.52, 0.000, 0.000, 0.000, 19:58:53.181, 1541897933181
174, -162646.28, -162251.67, -162435.39, -162414.30, -162755.42, -162654.44, -162602.14, -162515.66, 0.000, 0.000, 0.000, 19:58:53.181, 1541897933181
175, -162660.88, -162231.69, -162411.48, -162438.75, -162755.63, -162653.69, -162599.64, -162512.64, 0.000, 0.000, 0.000, 19:58:53.181, 1541897933181
176, -162663.39, -162230.61, -162410.72, -162406.39, -162753.39, -162653.13, -162599.64, -162510.56, 0.000, 0.000, 0.000, 19:58:53.182, 1541897933182
177, -162655.06, -162223.75, -162406.89, -162369.64, -162749.89, -162650.94, -162600.16, -162510.92, 0.000, 0.000, 0.000, 19:58:53.182, 1541897933182
178, -162647.64, -162219.25, -162405.59, -162337.00, -162749.38, -162652.39, -162603.45, -162514.92, 0.000, 0.000, 0.000, 19:58:53.182, 1541897933182
179, -162666.06, -162231.44, -162417.06, -162312.58, -162753.42, -162655.63, -162606.16, -162514.64, 0.000, 0.000, 0.000, 19:58:53.182, 1541897933182
180, -162672.77, -162233.66, -162421.38, -162279.30, -162754.36, -162655.94, -162607.08, -162514.95, 0.000, 0.000, 0.000, 19:58:53.182, 1541897933182
181, -162652.72, -162235.38, -162405.69, -162346.91, -162751.73, -162640.97, -162593.45, -162512.59, 0.108, 0.092, 0.978, 19:58:53.182, 1541897933182
182, -162633.28, -162247.19, -162393.63, -162432.67, -162752.45, -162633.13, -162586.78, -162510.39, 0.000, 0.000, 0.000, 19:58:53.182, 1541897933182
183, -162647.25, -162230.36, -162402.89, -162412.48, -162753.34, -162635.00, -162588.28, -162509.25, 0.000, 0.000, 0.000, 19:58:53.182, 1541897933182
184, -162656.36, -162234.00, -162407.39, -162381.55, -162753.42, -162635.13, -162588.30, -162507.55, 0.000, 0.000, 0.000, 19:58:53.183, 1541897933183
185, -162651.89, -162229.45, -162405.95, -162345.91, -162750.00, -162633.25, -162587.48, -162506.47, 0.000, 0.000, 0.000, 19:58:53.183, 1541897933183
186, -162639.13, -162221.25, -162402.30, -162309.52, -162751.45, -162633.41, -162590.25, -162509.81, 0.000, 0.000, 0.000, 19:58:53.183, 1541897933183
187, -162647.69, -162226.70, -162408.34, -162277.86, -162756.02, -162633.95, -162591.14, -162510.34, 0.000, 0.000, 0.000, 19:58:53.183, 1541897933183
188, -162650.31, -162222.83, -162404.70, -162352.36, -162754.16, -162624.17, -162580.38, -162517.63, 0.000, 0.000, 0.000, 19:58:53.183, 1541897933183
189, -162640.55, -162228.03, -162409.30, -162431.84, -162752.13, -162614.88, -162572.66, -162519.17, 0.000, 0.000, 0.000, 19:58:53.183, 1541897933183
190, -162626.55, -162243.75, -162416.02, -162400.11, -162756.56, -162612.48, -162573.27, -162519.75, 0.104, 0.090, 0.982, 19:58:53.183, 1541897933183
191, -162630.89, -162232.80, -162405.28, -162369.30, -162757.80, -162613.63, -162574.92, -162520.52, 0.000, 0.000, 0.000, 19:58:53.183, 1541897933183
192, -162645.19, -162234.70, -162413.30, -162341.81, -162759.67, -162614.84, -162575.11, -162518.17, 0.000, 0.000, 0.000, 19:58:53.184, 1541897933184
193, -162644.86, -162232.91, -162412.95, -162307.00, -162756.72, -162613.88, -162575.39, -162517.73, 0.000, 0.000, 0.000, 19:58:53.184, 1541897933184
194, -162629.91, -162238.33, -162409.72, -162276.66, -162755.42, -162608.80, -162572.09, -162517.25, 0.000, 0.000, 0.000, 19:58:53.184, 1541897933184
195, -162614.91, -162252.02, -162417.84, -162390.27, -162759.19, -162595.05, -162559.36, -162519.27, 0.000, 0.000, 0.000, 19:58:53.184, 1541897933184
196, -162628.14, -162231.95, -162409.42, -162448.27, -162760.84, -162593.92, -162556.66, -162519.22, 0.000, 0.000, 0.000, 19:58:53.184, 1541897933184
197, -162630.33, -162230.67, -162410.31, -162417.42, -162758.56, -162594.34, -162557.34, -162518.80, 0.000, 0.000, 0.000, 19:58:53.184, 1541897933184
198, -162621.88, -162230.50, -162406.86, -162380.83, -162756.50, -162593.42, -162557.58, -162520.63, 0.000, 0.000, 0.000, 19:58:53.184, 1541897933184
199, -162616.67, -162234.95, -162407.25, -162347.11, -162760.66, -162594.19, -162560.16, -162522.56, 0.000, 0.000, 0.000, 19:58:53.184, 1541897933184
200, -162633.64, -162238.03, -162417.42, -162320.17, -162763.98, -162595.77, -162560.95, -162520.63, 0.102, 0.090, 0.986, 19:58:53.184, 1541897933184
201, -162637.44, -162239.34, -162418.97, -162283.56, -162763.28, -162594.92, -162561.08, -162519.47, 0.000, 0.000, 0.000, 19:58:53.185, 1541897933185
202, -162619.23, -162245.00, -162417.02, -162306.77, -162759.50, -162582.45, -162550.44, -162517.50, 0.000, 0.000, 0.000, 19:58:53.185, 1541897933185
203, -162598.97, -162251.02, -162416.63, -162425.63, -162755.39, -162572.33, -162541.36, -162515.30, 0.000, 0.000, 0.000, 19:58:53.185, 1541897933185
204, -162615.94, -162235.42, -162412.58, -162424.17, -162758.94, -162575.16, -162543.33, -162515.02, 0.000, 0.000, 0.000, 19:58:53.185, 1541897933185
205, -162623.86, -162239.75, -162417.11, -162393.00, -162759.34, -162576.17, -162544.56, -162514.81, 0.000, 0.000, 0.000, 19:58:53.185, 1541897933185
206, -162618.97, -162235.33, -162415.17, -162357.64, -162755.25, -162574.95, -162545.19, -162515.48, 0.000, 0.000, 0.000, 19:58:53.185, 1541897933185
207, -162608.41, -162228.70, -162412.59, -162322.86, -162753.53, -162575.66, -162548.86, -162520.17, 0.000, 0.000, 0.000, 19:58:53.185, 1541897933185
208, -162621.61, -162237.36, -162420.63, -162293.80, -162756.20, -162577.73, -162550.23, -162519.13, 0.000, 0.000, 0.000, 19:58:53.186, 1541897933186
209, -162625.13, -162236.02, -162419.08, -162289.66, -162756.50, -162571.27, -162544.36, -162517.92, 0.000, 0.000, 0.000, 19:58:53.186, 1541897933186
210, -162605.92, -162227.75, -162404.48, -162413.16, -162751.61, -162555.77, -162529.63, -162516.83, 0.106, 0.086, 0.984, 19:58:53.186, 1541897933186
211, -162590.14, -162253.03, -162420.53, -162426.95, -162751.09, -162552.75, -162529.00, -162516.88, 0.000, 0.000, 0.000, 19:58:53.186, 1541897933186
212, -162600.75, -162237.38, -162419.70, -162398.03, -162755.83, -162555.53, -162532.42, -162518.25, 0.000, 0.000, 0.000, 19:58:53.186, 1541897933186
213, -162615.28, -162240.41, -162422.45, -162370.67, -162758.69, -162557.73, -162533.66, -162517.09, 0.000, 0.000, 0.000, 19:58:53.186, 1541897933186
214, -162613.55, -162237.25, -162421.61, -162335.02, -162757.06, -162556.67, -162533.30, -162516.38, 0.000, 0.000, 0.000, 19:58:53.187, 1541897933187
215, -162600.38, -162233.03, -162415.84, -162292.81, -162759.08, -162554.59, -162533.36, -162518.66, 0.000, 0.000, 0.000, 19:58:53.187, 1541897933187
216, -162592.03, -162235.80, -162409.14, -162320.58, -162757.11, -162544.45, -162524.11, -162517.72, 0.000, 0.000, 0.000, 19:58:53.187, 1541897933187
217, -162596.84, -162225.58, -162408.27, -162435.44, -162757.91, -162535.75, -162514.98, -162517.45, 0.000, 0.000, 0.000, 19:58:53.187, 1541897933187
218, -162594.55, -162227.48, -162406.25, -162419.97, -162757.03, -162533.23, -162512.95, -162524.25, 0.000, 0.000, 0.000, 19:58:53.187, 1541897933187
219, -162583.28, -162245.92, -162401.17, -162382.48, -162757.06, -162531.53, -162513.67, -162526.09, 0.000, 0.000, 0.000, 19:58:53.187, 1541897933187
220, -162584.28, -162229.92, -162404.11, -162351.83, -162760.25, -162534.97, -162517.50, -162530.06, 0.104, 0.090, 0.978, 19:58:53.187, 1541897933187
221, -162602.59, -162238.56, -162415.48, -162325.41, -162764.08, -162538.38, -162518.67, -162529.45, 0.000, 0.000, 0.000, 19:58:53.187, 1541897933187
222, -162603.30, -162238.61, -162417.09, -162287.97, -162762.06, -162535.98, -162517.77, -162526.80, 0.000, 0.000, 0.000, 19:58:53.187, 1541897933187
223, -162580.58, -162257.72, -162430.45, -162337.88, -162760.72, -162521.52, -162505.09, -162517.86, 0.000, 0.000, 0.000, 19:58:53.188, 1541897933188
224, -162562.00, -162254.92, -162431.97, -162433.83, -162762.83, -162509.41, -162495.03, -162524.11, 0.000, 0.000, 0.000, 19:58:53.189, 1541897933189
225, -162578.36, -162236.58, -162416.08, -162417.02, -162765.17, -162510.44, -162494.94, -162523.94, 0.000, 0.000, 0.000, 19:58:53.189, 1541897933189
226, -162584.44, -162238.56, -162419.27, -162384.36, -162764.89, -162510.78, -162495.45, -162523.34, 0.000, 0.000, 0.000, 19:58:53.190, 1541897933190
227, -162578.41, -162232.84, -162417.16, -162347.91, -162761.33, -162510.19, -162496.11, -162523.69, 0.000, 0.000, 0.000, 19:58:53.307, 1541897933307
228, -162571.70, -162228.22, -162417.06, -162314.78, -162761.84, -162514.14, -162501.13, -162529.41, 0.000, 0.000, 0.000, 19:58:53.308, 1541897933308
229, -162586.52, -162238.50, -162426.23, -162284.50, -162765.20, -162514.67, -162501.80, -162526.77, 0.000, 0.000, 0.000, 19:58:53.308, 1541897933308
230, -162581.75, -162231.44, -162418.88, -162358.34, -162759.03, -162503.19, -162490.16, -162516.75, 0.106, 0.084, 0.986, 19:58:53.311, 1541897933311
231, -162567.45, -162241.06, -162409.69, -162443.31, -162756.92, -162492.39, -162481.58, -162518.88, 0.000, 0.000, 0.000, 19:58:53.312, 1541897933312
232, -162552.55, -162266.94, -162426.14, -162413.05, -162754.80, -162489.28, -162481.38, -162520.41, 0.000, 0.000, 0.000, 19:58:53.312, 1541897933312
233, -162564.92, -162245.63, -162423.23, -162385.11, -162761.64, -162491.97, -162482.45, -162518.86, 0.000, 0.000, 0.000, 19:58:53.313, 1541897933313
234, -162576.23, -162247.73, -162425.73, -162355.67, -162763.97, -162493.17, -162484.13, -162517.78, 0.000, 0.000, 0.000, 19:58:53.313, 1541897933313
235, -162573.69, -162244.09, -162424.91, -162321.64, -162761.06, -162491.16, -162483.92, -162517.61, 0.000, 0.000, 0.000, 19:58:53.313, 1541897933313
236, -162562.25, -162235.34, -162420.42, -162283.58, -162759.78, -162491.45, -162485.69, -162520.67, 0.000, 0.000, 0.000, 19:58:53.313, 1541897933313
237, -162557.89, -162228.20, -162413.89, -162357.08, -162763.45, -162481.11, -162474.94, -162525.08, 0.000, 0.000, 0.000, 19:58:53.313, 1541897933313
238, -162563.66, -162228.03, -162413.58, -162450.33, -162760.84, -162474.58, -162467.58, -162529.03, 0.000, 0.000, 0.000, 19:58:53.313, 1541897933313
239, -162561.02, -162233.11, -162411.69, -162422.81, -162757.63, -162472.75, -162466.36, -162526.75, 0.106, 0.086, 0.980, 19:58:53.314, 1541897933314
240, -162546.59, -162253.31, -162405.84, -162384.33, -162758.09, -162469.92, -162465.42, -162526.80, 0.000, 0.000, 0.000, 19:58:53.315, 1541897933315
241, -162548.81, -162249.27, -162409.25, -162352.73, -162766.14, -162470.33, -162467.05, -162527.78, 0.000, 0.000, 0.000, 19:58:53.315, 1541897933315
242, -162565.66, -162246.91, -162419.75, -162325.09, -162768.34, -162472.61, -162469.08, -162526.70, 0.000, 0.000, 0.000, 19:58:53.316, 1541897933316
243, -162564.92, -162246.48, -162419.55, -162286.09, -162765.44, -162470.31, -162468.66, -162525.70, 0.000, 0.000, 0.000, 19:58:53.316, 1541897933316
244, -162542.64, -162249.31, -162425.03, -162336.44, -162762.02, -162457.64, -162457.77, -162523.63, 0.000, 0.000, 0.000, 19:58:53.316, 1541897933316
245, -162530.28, -162237.77, -162412.94, -162448.72, -162759.11, -162449.44, -162449.44, -162521.03, 0.000, 0.000, 0.000, 19:58:53.317, 1541897933317
246, -162547.22, -162236.58, -162413.89, -162437.39, -162761.22, -162450.78, -162450.06, -162519.17, 0.000, 0.000, 0.000, 19:58:53.317, 1541897933317
247, -162548.89, -162235.97, -162415.02, -162403.83, -162763.97, -162448.92, -162449.30, -162518.20, 0.000, 0.000, 0.000, 19:58:53.317, 1541897933317
248, -162537.55, -162237.72, -162408.97, -162365.69, -162760.66, -162444.97, -162448.53, -162516.75, 0.000, 0.000, 0.000, 19:58:53.318, 1541897933318
249, -162530.45, -162254.75, -162407.03, -162330.98, -162764.03, -162445.03, -162450.84, -162518.59, 0.110, 0.086, 0.984, 19:58:53.318, 1541897933318
250, -162546.66, -162248.53, -162417.09, -162301.31, -162767.50, -162447.69, -162451.44, -162517.98, 0.000, 0.000, 0.000, 19:58:53.318, 1541897933318
251, -162544.39, -162241.42, -162413.42, -162303.95, -162762.77, -162440.16, -162443.73, -162518.25, 0.000, 0.000, 0.000, 19:58:53.318, 1541897933318
252, -162525.47, -162249.92, -162430.48, -162421.34, -162760.64, -162426.08, -162431.44, -162524.53, 0.000, 0.000, 0.000, 19:58:53.319, 1541897933319
253, -162511.45, -162255.36, -162433.16, -162420.22, -162762.97, -162421.94, -162430.17, -162533.83, 0.000, 0.000, 0.000, 19:58:53.319, 1541897933319
254, -162526.09, -162241.83, -162419.64, -162392.06, -162765.69, -162423.13, -162431.27, -162532.14, 0.000, 0.000, 0.000, 19:58:53.319, 1541897933319
255, -162533.98, -162245.56, -162423.59, -162360.20, -162765.53, -162423.11, -162431.33, -162530.34, 0.000, 0.000, 0.000, 19:58:53.328, 1541897933328
0, -162526.97, -162238.97, -162419.02, -162322.94, -162763.13, -162420.13, -162428.92, -162528.16, 0.000, 0.000, 0.000, 19:58:53.331, 1541897933331
1, -162512.48, -162238.05, -162411.70, -162282.64, -162763.30, -162418.25, -162428.89, -162529.00, 0.000, 0.000, 0.000, 19:58:53.331, 1541897933331
2, -162510.28, -162235.97, -162405.64, -162361.59, -162761.31, -162407.14, -162417.09, -162524.98, 0.000, 0.000, 0.000, 19:58:53.331, 1541897933331
3, -162514.31, -162228.27, -162405.11, -162448.56, -162759.92, -162399.64, -162410.03, -162521.66, 0.110, 0.092, 0.986, 19:58:53.331, 1541897933331
4, -162511.89, -162233.45, -162408.31, -162420.00, -162760.91, -162397.73, -162409.41, -162520.64, 0.000, 0.000, 0.000, 19:58:53.332, 1541897933332
5, -162499.03, -162262.64, -162426.13, -162381.64, -162765.47, -162395.23, -162408.95, -162522.09, 0.000, 0.000, 0.000, 19:58:53.332, 1541897933332
6, -162504.48, -162243.58, -162417.58, -162350.73, -162767.95, -162395.81, -162409.64, -162527.08, 0.000, 0.000, 0.000, 19:58:53.333, 1541897933333
7, -162517.53, -162246.19, -162421.50, -162321.16, -162769.06, -162396.19, -162410.23, -162534.34, 0.000, 0.000, 0.000, 19:58:53.333, 1541897933333
106, -162530.06, -162212.38, -162396.38, -162298.98, -162745.02, -163439.80, -162740.75, -162508.28, 0.000, 0.000, 0.000, 19:58:53.695, 1541897933695
107, -162546.06, -162223.75, -162405.36, -162267.48, -162748.55, -163441.27, -162742.06, -162508.00, 0.000, 0.000, 0.000, 19:58:54.169, 1541897934169
108, -162533.86, -162232.36, -162403.30, -162325.98, -162747.09, -163428.02, -162729.28, -162514.72, 0.000, 0.000, 0.000, 19:58:54.170, 1541897934170
109, -162513.47, -162241.86, -162406.89, -162423.13, -162746.11, -163415.45, -162718.89, -162512.95, 0.000, 0.000, 0.000, 19:58:54.170, 1541897934170
110, -162510.67, -162224.19, -162391.44, -162401.56, -162746.22, -163415.83, -162721.08, -162514.75, 0.104, 0.092, 0.984, 19:58:54.170, 1541897934170
111, -162528.36, -162225.36, -162401.41, -162374.56, -162749.58, -163418.34, -162722.86, -162513.31, 0.000, 0.000, 0.000, 19:58:54.170, 1541897934170
112, -162530.95, -162225.17, -162402.63, -162341.52, -162746.89, -163416.95, -162722.75, -162511.55, 0.000, 0.000, 0.000, 19:58:54.170, 1541897934170
113, -162523.16, -162218.73, -162399.55, -162304.80, -162744.31, -163415.45, -162723.13, -162512.53, 0.000, 0.000, 0.000, 19:58:54.170, 1541897934170
114, -162515.42, -162212.33, -162397.00, -162268.00, -162748.05, -163414.69, -162724.58, -162514.25, 0.000, 0.000, 0.000, 19:58:54.170, 1541897934170
115, -162520.94, -162211.34, -162396.22, -162347.70, -162747.69, -163405.50, -162714.14, -162511.19, 0.000, 0.000, 0.000, 19:58:54.170, 1541897934170
116, -162522.14, -162210.31, -162395.92, -162421.61, -162747.72, -163401.48, -162710.44, -162510.05, 0.000, 0.000, 0.000, 19:58:54.170, 1541897934170
117, -162515.89, -162233.31, -162393.33, -162389.75, -162746.56, -163399.88, -162710.66, -162509.73, 0.000, 0.000, 0.000, 19:58:54.170, 1541897934170
118, -162505.77, -162239.97, -162389.95, -162353.33, -162752.72, -163399.97, -162712.36, -162512.17, 0.000, 0.000, 0.000, 19:58:54.171, 1541897934171
119, -162520.53, -162228.22, -162399.41, -162325.20, -162757.55, -163402.41, -162713.56, -162511.39, 0.000, 0.000, 0.000, 19:58:54.171, 1541897934171
120, -162527.59, -162231.06, -162403.88, -162289.16, -162757.19, -163401.53, -162712.92, -162509.45, 0.106, 0.088, 0.982, 19:58:54.171, 1541897934171
121, -162513.52, -162237.36, -162412.84, -162294.38, -162751.56, -163390.70, -162704.06, -162506.98, 0.000, 0.000, 0.000, 19:58:54.172, 1541897934172
122, -162489.36, -162245.00, -162428.69, -162408.23, -162748.95, -163377.44, -162693.61, -162505.42, 0.000, 0.000, 0.000, 19:58:54.172, 1541897934172
123, -162499.95, -162223.66, -162405.22, -162409.58, -162750.98, -163379.33, -162694.78, -162505.02, 0.000, 0.000, 0.000, 19:58:54.172, 1541897934172
124, -162514.20, -162230.78, -162413.33, -162381.78, -162754.05, -163381.91, -162696.53, -162506.81, 0.000, 0.000, 0.000, 19:58:54.172, 1541897934172
125, -162511.23, -162227.86, -162412.19, -162346.70, -162751.73, -163380.25, -162696.08, -162516.06, 0.000, 0.000, 0.000, 19:58:54.173, 1541897934173
126, -162500.23, -162220.02, -162408.17, -162311.19, -162749.58, -163380.56, -162698.95, -162522.81, 0.000, 0.000, 0.000, 19:58:54.173, 1541897934173
127, -162506.98, -162225.09, -162414.20, -162278.67, -162751.73, -163382.91, -162701.78, -162524.09, 0.000, 0.000, 0.000, 19:58:54.173, 1541897934173
128, -162511.64, -162225.25, -162412.83, -162301.48, -162751.52, -163374.30, -162692.63, -162512.88, 0.000, 0.000, 0.000, 19:58:54.173, 1541897934173
129, -162499.55, -162217.91, -162401.16, -162423.23, -162746.89, -163361.89, -162681.13, -162504.27, 0.000, 0.000, 0.000, 19:58:54.173, 1541897934173
130, -162485.75, -162244.25, -162394.06, -162412.16, -162752.03, -163358.33, -162679.61, -162514.41, 0.108, 0.086, 0.984, 19:58:54.174, 1541897934174
131, -162486.84, -162232.11, -162397.38, -162380.34, -162757.81, -163359.89, -162681.89, -162517.81, 0.000, 0.000, 0.000, 19:58:54.174, 1541897934174
132, -162506.14, -162233.52, -162409.61, -162354.86, -162762.09, -163363.83, -162685.36, -162518.36, 0.000, 0.000, 0.000, 19:58:54.174, 1541897934174
133, -162508.55, -162234.05, -162411.59, -162321.78, -162760.91, -163364.00, -162686.34, -162517.88, 0.000, 0.000, 0.000, 19:58:54.174, 1541897934174
134, -162498.09, -162226.39, -162407.19, -162280.25, -162756.56, -163361.52, -162685.63, -162518.20, 0.000, 0.000, 0.000, 19:58:54.174, 1541897934174
135, -162483.75, -162213.95, -162397.36, -162337.56, -162749.45, -163352.38, -162677.80, -162513.36, 0.000, 0.000, 0.000, 19:58:54.174, 1541897934174
136, -162492.08, -162216.19, -162398.27, -162440.38, -162750.58, -163346.14, -162670.73, -162513.69, 0.000, 0.000, 0.000, 19:58:54.174, 1541897934174
137, -162494.98, -162216.94, -162399.86, -162417.61, -162751.70, -163344.95, -162670.09, -162513.47, 0.000, 0.000, 0.000, 19:58:54.175, 1541897934175
138, -162487.45, -162227.08, -162397.23, -162381.08, -162748.23, -163343.61, -162670.31, -162514.14, 0.000, 0.000, 0.000, 19:58:54.175, 1541897934175
139, -162481.00, -162234.92, -162396.95, -162346.61, -162752.45, -163345.81, -162673.98, -162518.17, 0.000, 0.000, 0.000, 19:58:54.175, 1541897934175
140, -162498.89, -162231.91, -162408.86, -162320.39, -162760.30, -163349.20, -162677.48, -162518.52, 0.116, 0.086, 0.982, 19:58:54.175, 1541897934175
141, -162504.69, -162234.08, -162413.11, -162283.98, -162759.27, -163348.58, -162677.91, -162517.66, 0.000, 0.000, 0.000, 19:58:54.175, 1541897934175
142, -162488.33, -162235.23, -162418.05, -162318.58, -162755.27, -163336.22, -162666.36, -162514.52, 0.000, 0.000, 0.000, 19:58:54.175, 1541897934175
143, -162467.19, -162247.64, -162434.38, -162420.89, -162750.02, -163325.84, -162657.38, -162513.31, 0.000, 0.000, 0.000, 19:58:54.176, 1541897934176
144, -162479.00, -162230.34, -162414.83, -162407.55, -162750.36, -163326.53, -162657.69, -162511.38, 0.000, 0.000, 0.000, 19:58:54.176, 1541897934176
145, -162489.06, -162233.41, -162418.08, -162377.70, -162751.36, -163327.52, -162658.83, -162509.88, 0.000, 0.000, 0.000, 19:58:54.176, 1541897934176
146, -162485.05, -162229.25, -162415.95, -162341.19, -162749.86, -163325.38, -162658.78, -162508.94, 0.000, 0.000, 0.000, 19:58:54.176, 1541897934176
147, -162474.38, -162222.72, -162412.95, -162305.06, -162752.64, -163325.95, -162662.48, -162513.30, 0.000, 0.000, 0.000, 19:58:54.176, 1541897934176
148, -162483.88, -162228.83, -162420.53, -162274.84, -162756.09, -163328.38, -162664.53, -162514.92, 0.000, 0.000, 0.000, 19:58:54.177, 1541897934177
149, -162482.78, -162228.59, -162415.41, -162359.22, -162755.05, -163316.77, -162652.41, -162515.11, 0.112, 0.090, 0.984, 19:58:54.177, 1541897934177
150, -162473.06, -162230.59, -162406.56, -162441.77, -162753.84, -163306.67, -162643.64, -162513.47, 0.000, 0.000, 0.000, 19:58:54.177, 1541897934177
151, -162460.92, -162239.58, -162401.13, -162410.27, -162753.63, -163304.77, -162644.16, -162514.64, 0.000, 0.000, 0.000, 19:58:54.177, 1541897934177
152, -162464.47, -162231.89, -162404.80, -162378.75, -162755.86, -163305.33, -162645.55, -162514.08, 0.000, 0.000, 0.000, 19:58:54.177, 1541897934177
153, -162479.97, -162235.75, -162414.78, -162350.97, -162758.56, -163307.63, -162647.09, -162513.19, 0.000, 0.000, 0.000, 19:58:54.177, 1541897934177
154, -162479.98, -162234.30, -162414.75, -162316.19, -162757.03, -163306.73, -162647.09, -162512.80, 0.000, 0.000, 0.000, 19:58:54.177, 1541897934177
155, -162468.34, -162225.02, -162408.97, -162276.28, -162752.70, -163303.61, -162646.75, -162513.66, 0.000, 0.000, 0.000, 19:58:54.177, 1541897934177
156, -162456.78, -162213.31, -162399.70, -162353.20, -162754.38, -163294.13, -162637.75, -162514.98, 0.000, 0.000, 0.000, 19:58:54.178, 1541897934178
157, -162466.17, -162216.28, -162402.45, -162448.05, -162756.55, -163288.73, -162631.53, -162517.34, 0.000, 0.000, 0.000, 19:58:54.178, 1541897934178
158, -162468.70, -162217.89, -162404.34, -162421.27, -162754.22, -163287.67, -162631.56, -162515.42, 0.000, 0.000, 0.000, 19:58:54.178, 1541897934178
159, -162459.31, -162233.67, -162400.42, -162383.42, -162751.86, -163285.30, -162631.33, -162515.86, 0.102, 0.094, 0.980, 19:58:54.178, 1541897934178
160, -162453.23, -162228.70, -162398.97, -162349.30, -162755.05, -163285.56, -162632.72, -162518.55, 0.000, 0.000, 0.000, 19:58:54.178, 1541897934178
161, -162471.50, -162229.14, -162409.31, -162322.23, -162758.84, -163288.20, -162635.00, -162517.66, 0.000, 0.000, 0.000, 19:58:54.178, 1541897934178
162, -162475.08, -162230.88, -162412.39, -162284.91, -162757.81, -163287.67, -162634.78, -162516.59, 0.000, 0.000, 0.000, 19:58:54.178, 1541897934178
163, -162456.03, -162251.22, -162434.08, -162312.91, -162757.50, -163273.86, -162623.03, -162517.89, 0.000, 0.000, 0.000, 19:58:54.178, 1541897934178
164, -162435.38, -162249.27, -162424.69, -162436.67, -162760.17, -163262.55, -162613.63, -162519.22, 0.000, 0.000, 0.000, 19:58:54.179, 1541897934179
165, -162450.33, -162233.73, -162412.28, -162433.94, -162763.36, -163264.67, -162614.44, -162517.05, 0.000, 0.000, 0.000, 19:58:54.179, 1541897934179
166, -162457.75, -162234.92, -162417.88, -162402.94, -162763.25, -163264.75, -162615.58, -162516.52, 0.000, 0.000, 0.000, 19:58:54.179, 1541897934179
167, -162452.31, -162229.61, -162415.02, -162367.14, -162759.52, -163262.88, -162615.03, -162515.69, 0.000, 0.000, 0.000, 19:58:54.179, 1541897934179
168, -162440.27, -162222.11, -162410.70, -162330.64, -162755.97, -163262.19, -162617.00, -162518.20, 0.000, 0.000, 0.000, 19:58:54.179, 1541897934179
169, -162453.50, -162231.13, -162419.34, -162300.55, -162758.89, -163264.48, -162619.64, -162518.08, 0.100, 0.096, 0.980, 19:58:54.179, 1541897934179
170, -162457.84, -162235.23, -162419.22, -162284.09, -162760.56, -163258.81, -162614.34, -162518.34, 0.000, 0.000, 0.000, 19:58:54.179, 1541897934179
171, -162437.98, -162235.77, -162401.78, -162406.41, -162759.72, -163241.58, -162597.89, -162515.97, 0.000, 0.000, 0.000, 19:58:54.179, 1541897934179
172, -162424.91, -162222.89, -162395.16, -162441.13, -162756.66, -163239.20, -162597.11, -162516.83, 0.000, 0.000, 0.000, 19:58:54.180, 1541897934180
173, -162433.97, -162220.00, -162403.67, -162413.16, -162759.09, -163242.77, -162599.80, -162518.86, 0.000, 0.000, 0.000, 19:58:54.180, 1541897934180
174, -162446.97, -162228.42, -162411.75, -162383.47, -162761.28, -163243.86, -162600.94, -162517.05, 0.000, 0.000, 0.000, 19:58:54.180, 1541897934180
175, -162444.14, -162227.25, -162409.38, -162347.52, -162758.61, -163242.19, -162599.92, -162514.75, 0.000, 0.000, 0.000, 19:58:54.180, 1541897934180
176, -162430.81, -162237.25, -162402.47, -162308.28, -162757.47, -163239.64, -162599.61, -162515.59, 0.000, 0.000, 0.000, 19:58:54.180, 1541897934180
177, -162430.19, -162239.33, -162403.41, -162278.47, -162757.89, -163237.67, -162597.84, -162517.31, 0.000, 0.000, 0.000, 19:58:54.181, 1541897934181
178, -162431.94, -162223.23, -162408.86, -162380.55, -162755.08, -163225.53, -162584.75, -162519.91, 0.000, 0.000, 0.000, 19:58:54.181, 1541897934181
179, -162427.23, -162216.91, -162420.59, -162434.50, -162754.52, -163218.42, -162579.00, -162516.08, 0.096, 0.092, 0.978, 19:58:54.181, 1541897934181
180, -162418.13, -162226.30, -162401.44, -162400.28, -162754.72, -163218.41, -162581.42, -162518.28, 0.000, 0.000, 0.000, 19:58:54.181, 1541897934181
181, -162418.09, -162235.13, -162403.80, -162368.34, -162760.23, -163220.20, -162584.95, -162521.97, 0.000, 0.000, 0.000, 19:58:54.181, 1541897934181
182, -162435.47, -162236.28, -162413.92, -162341.94, -162765.75, -163221.42, -162586.34, -162521.36, 0.000, 0.000, 0.000, 19:58:54.181, 1541897934181
183, -162437.91, -162234.03, -162415.66, -162308.22, -162764.03, -163220.48, -162586.30, -162520.94, 0.000, 0.000, 0.000, 19:58:54.182, 1541897934182
184, -162423.45, -162235.91, -162415.50, -162276.70, -162759.20, -163214.27, -162580.86, -162519.44, 0.000, 0.000, 0.000, 19:58:54.182, 1541897934182
185, -162401.27, -162249.16, -162442.55, -162387.91, -162761.13, -163199.00, -162566.52, -162527.00, 0.000, 0.000, 0.000, 19:58:54.182, 1541897934182
186, -162412.02, -162229.72, -162420.48, -162450.48, -162761.47, -163195.98, -162562.91, -162524.56, 0.000, 0.000, 0.000, 19:58:54.182, 1541897934182
187, -162418.30, -162229.88, -162417.41, -162420.55, -162760.66, -163196.50, -162564.33, -162524.56, 0.000, 0.000, 0.000, 19:58:54.182, 1541897934182
188, -162414.14, -162226.20, -162416.91, -162385.23, -162759.45, -163197.19, -162565.53, -162526.66, 0.000, 0.000, 0.000, 19:58:54.182, 1541897934182
189, -162407.23, -162221.44, -162416.05, -162351.08, -162762.98, -163199.63, -162570.06, -162531.20, 0.098, 0.092, 0.982, 19:58:54.182, 1541897934182
190, -162423.08, -162232.47, -162426.52, -162324.22, -162770.77, -163202.75, -162573.53, -162531.53, 0.000, 0.000, 0.000, 19:58:54.182, 1541897934182
191, -162430.20, -162236.11, -162430.70, -162288.02, -162769.44, -163201.72, -162573.98, -162530.44, 0.000, 0.000, 0.000, 19:58:54.183, 1541897934183
192, -162412.00, -162232.67, -162415.64, -162325.78, -162760.80, -163187.39, -162560.30, -162525.98, 0.000, 0.000, 0.000, 19:58:54.183, 1541897934183
193, -162391.08, -162228.31, -162401.98, -162437.03, -162758.17, -163177.98, -162552.00, -162525.70, 0.000, 0.000, 0.000, 19:58:54.183, 1541897934183
194, -162403.25, -162224.23, -162410.66, -162426.50, -162763.30, -163180.31, -162554.53, -162525.58, 0.000, 0.000, 0.000, 19:58:54.183, 1541897934183
195, -162414.19, -162228.59, -162418.08, -162396.55, -162764.86, -163181.75, -162557.14, -162525.03, 0.000, 0.000, 0.000, 19:58:54.183, 1541897934183
196, -162413.42, -162226.81, -162419.50, -162362.00, -162763.36, -163181.63, -162558.69, -162525.83, 0.000, 0.000, 0.000, 19:58:54.183, 1541897934183
197, -162403.88, -162220.00, -162416.91, -162326.03, -162761.47, -163182.95, -162561.59, -162530.06, 0.000, 0.000, 0.000, 19:58:54.184, 1541897934184
198, -162410.92, -162225.31, -162421.88, -162291.81, -162763.05, -163184.38, -162563.56, -162530.06, 0.098, 0.090, 0.982, 19:58:54.184, 1541897934184
199, -162412.84, -162223.17, -162418.77, -162358.39, -162759.19, -163174.64, -162554.00, -162519.17, 0.000, 0.000, 0.000, 19:58:54.184, 1541897934184
200, -162402.14, -162226.20, -162409.05, -162434.95, -162760.48, -163164.05, -162544.23, -162524.42, 0.000, 0.000, 0.000, 19:58:54.184, 1541897934184
201, -162389.38, -162237.84, -162402.66, -162402.67, -162759.63, -163161.50, -162543.53, -162530.61, 0.000, 0.000, 0.000, 19:58:54.184, 1541897934184
202, -162392.48, -162235.19, -162406.67, -162372.30, -162765.53, -163163.80, -162547.06, -162532.63, 0.000, 0.000, 0.000, 19:58:54.186, 1541897934186
203, -162409.48, -162234.50, -162416.98, -162346.73, -162769.67, -163167.14, -162549.08, -162532.06, 0.000, 0.000, 0.000, 19:58:54.186, 1541897934186
204, -162411.91, -162234.98, -162419.55, -162312.78, -162768.89, -163166.81, -162550.39, -162532.92, 0.000, 0.000, 0.000, 19:58:54.186, 1541897934186
205, -162397.69, -162232.16, -162424.52, -162283.41, -162764.22, -163160.59, -162546.78, -162529.83, 0.000, 0.000, 0.000, 19:58:54.186, 1541897934186
206, -162381.53, -162223.09, -162422.92, -162401.72, -162764.64, -163148.70, -162534.95, -162520.48, 0.000, 0.000, 0.000, 19:58:54.187, 1541897934187
207, -162393.17, -162220.80, -162413.17, -162458.95, -162764.45, -163146.34, -162531.31, -162530.91, 0.000, 0.000, 0.000, 19:58:54.187, 1541897934187
208, -162394.38, -162220.39, -162412.38, -162426.08, -162764.66, -163144.06, -162529.91, -162532.17, 0.098, 0.092, 0.984, 19:58:54.187, 1541897934187
209, -162385.66, -162226.03, -162408.66, -162389.38, -162765.89, -163141.38, -162529.34, -162530.86, 0.000, 0.000, 0.000, 19:58:54.187, 1541897934187
210, -162379.92, -162221.53, -162409.52, -162356.72, -162769.02, -163142.89, -162533.03, -162534.27, 0.000, 0.000, 0.000, 19:58:54.188, 1541897934188
211, -162397.91, -162227.55, -162421.56, -162330.25, -162773.05, -163146.58, -162535.67, -162534.39, 0.000, 0.000, 0.000, 19:58:54.188, 1541897934188
212, -162404.28, -162231.34, -162425.52, -162293.70, -162773.27, -163147.86, -162536.56, -162534.09, 0.000, 0.000, 0.000, 19:58:54.189, 1541897934189
213, -162378.64, -162243.34, -162426.95, -162322.41, -162766.09, -163134.94, -162526.14, -162527.78, 0.000, 0.000, 0.000, 19:58:54.190, 1541897934190
214, -162233.25, -162274.53, -162418.19, -162431.84, -162763.94, -163120.88, -162514.03, -162527.33, 0.000, 0.000, 0.000, 19:58:54.191, 1541897934191
215, -162271.52, -162246.03, -162407.48, -162410.91, -162761.63, -163110.70, -162502.86, -162524.05, 0.000, 0.000, 0.000, 19:58:54.192, 1541897934192
216, -162518.55, -162262.11, -162425.16, -162362.97, -162763.30, -163094.73, -162486.94, -162522.80, 0.000, 0.000, 0.000, 19:58:54.192, 1541897934192
217, -162853.55, -162263.47, -162421.98, -162313.58, -162760.19, -163082.50, -162475.47, -162521.52, 0.000, 0.000, 0.000, 19:58:54.192, 1541897934192
218, -162923.45, -162264.31, -162442.77, -162286.20, -162760.28, -163073.89, -162469.64, -162523.03, 0.102, 0.092, 0.980, 19:58:54.192, 1541897934192
219, -162919.11, -162250.44, -162430.84, -162406.56, -162763.59, -163061.73, -162457.03, -162518.09, 0.000, 0.000, 0.000, 19:58:54.192, 1541897934192
220, -162928.23, -162236.22, -162414.34, -162441.47, -162764.14, -163060.48, -162455.09, -162518.77, 0.000, 0.000, 0.000, 19:58:54.192, 1541897934192
221, -162925.97, -162237.36, -162410.70, -162405.67, -162761.86, -163060.22, -162455.58, -162518.72, 0.000, 0.000, 0.000, 19:58:54.192, 1541897934192
222, -162913.64, -162241.41, -162406.94, -162368.30, -162764.19, -163059.92, -162458.28, -162521.67, 0.000, 0.000, 0.000, 19:58:54.193, 1541897934193
223, -162920.19, -162236.13, -162413.09, -162338.70, -162767.13, -163061.83, -162461.75, -162523.64, 0.000, 0.000, 0.000, 19:58:54.193, 1541897934193
224, -162933.08, -162243.50, -162419.77, -162306.47, -162768.06, -163062.88, -162461.28, -162521.55, 0.000, 0.000, 0.000, 19:58:54.193, 1541897934193
225, -162923.89, -162252.33, -162426.28, -162292.03, -162766.05, -163054.03, -162452.67, -162523.91, 0.000, 0.000, 0.000, 19:58:54.193, 1541897934193
226, -162895.19, -162271.89, -162442.86, -162415.22, -162766.61, -163035.61, -162436.30, -162528.78, 0.000, 0.000, 0.000, 19:58:54.193, 1541897934193
227, -162892.72, -162236.08, -162412.94, -162443.55, -162766.56, -163033.16, -162434.61, -162532.52, 0.000, 0.000, 0.000, 19:58:54.649, 1541897934649
228, -162909.83, -162242.41, -162420.38, -162417.02, -162769.98, -163036.44, -162436.31, -162532.31, 0.102, 0.082, 0.980, 19:58:54.650, 1541897934650
229, -162911.11, -162242.28, -162421.20, -162382.98, -162768.33, -163035.19, -162436.63, -162531.13, 0.000, 0.000, 0.000, 19:58:54.650, 1541897934650
230, -162901.88, -162234.63, -162417.11, -162345.86, -162764.97, -163033.81, -162438.14, -162532.20, 0.000, 0.000, 0.000, 19:58:54.650, 1541897934650
231, -162899.69, -162233.36, -162419.30, -162312.23, -162765.11, -163036.13, -162441.50, -162535.42, 0.000, 0.000, 0.000, 19:58:54.651, 1541897934651
232, -162911.22, -162239.81, -162424.89, -162285.13, -162766.38, -163033.66, -162438.33, -162530.66, 0.000, 0.000, 0.000, 19:58:54.652, 1541897934652
233, -162897.36, -162242.34, -162410.81, -162387.58, -162766.02, -163018.00, -162422.20, -162523.08, 0.000, 0.000, 0.000, 19:58:54.653, 1541897934653
234, -162881.52, -162266.78, -162429.88, -162448.03, -162765.08, -163008.27, -162414.61, -162522.09, 0.000, 0.000, 0.000, 19:58:54.654, 1541897934654
235, -162871.95, -162261.14, -162442.61, -162413.42, -162769.42, -163006.59, -162415.06, -162532.47, 0.000, 0.000, 0.000, 19:58:54.654, 1541897934654
236, -162888.48, -162247.39, -162426.92, -162386.33, -162773.48, -163009.86, -162418.16, -162533.31, 0.000, 0.000, 0.000, 19:58:54.654, 1541897934654
237, -162894.30, -162250.56, -162430.84, -162353.81, -162773.95, -163010.64, -162419.08, -162533.44, 0.102, 0.088, 0.980, 19:58:54.654, 1541897934654
238, -162888.27, -162245.39, -162428.20, -162315.20, -162769.63, -163008.86, -162418.39, -162532.77, 0.000, 0.000, 0.000, 19:58:54.654, 1541897934654
239, -162873.33, -162233.45, -162420.36, -162297.36, -162764.77, -163003.98, -162415.61, -162531.98, 0.000, 0.000, 0.000, 19:58:54.655, 1541897934655
240, -162873.22, -162229.30, -162415.69, -162420.91, -162764.55, -162992.36, -162403.50, -162528.27, 0.000, 0.000, 0.000, 19:58:54.655, 1541897934655
241, -162879.44, -162231.58, -162418.92, -162446.14, -162763.41, -162989.66, -162401.22, -162527.55, 0.000, 0.000, 0.000, 19:58:54.655, 1541897934655
242, -162875.59, -162244.56, -162416.53, -162410.45, -162767.34, -162987.64, -162400.30, -162526.50, 0.000, 0.000, 0.000, 19:58:54.655, 1541897934655
243, -162865.38, -162247.53, -162411.84, -162374.33, -162770.36, -162987.58, -162402.55, -162529.30, 0.000, 0.000, 0.000, 19:58:54.655, 1541897934655
244, -162878.08, -162242.67, -162421.89, -162347.00, -162775.44, -162992.80, -162408.00, -162531.73, 0.000, 0.000, 0.000, 19:58:54.656, 1541897934656
245, -162891.44, -162250.69, -162431.47, -162318.03, -162778.45, -162996.14, -162410.36, -162532.11, 0.000, 0.000, 0.000, 19:58:54.657, 1541897934657
246, -162886.30, -162248.98, -162428.38, -162287.66, -162772.64, -162990.77, -162406.14, -162528.80, 0.000, 0.000, 0.000, 19:58:54.658, 1541897934658
247, -162860.02, -162255.20, -162432.33, -162392.06, -162767.92, -162974.86, -162392.09, -162526.33, 0.108, 0.090, 0.982, 19:58:54.658, 1541897934658
248, -162858.52, -162251.13, -162424.67, -162450.13, -162767.91, -162970.14, -162387.92, -162524.95, 0.000, 0.000, 0.000, 19:58:54.660, 1541897934660
249, -162873.17, -162250.44, -162425.45, -162424.00, -162768.95, -162972.13, -162389.33, -162523.53, 0.000, 0.000, 0.000, 19:58:54.660, 1541897934660
250, -162872.70, -162246.23, -162425.73, -162388.53, -162766.66, -162970.52, -162389.34, -162523.08, 0.000, 0.000, 0.000, 19:58:54.660, 1541897934660
251, -162862.97, -162238.56, -162422.56, -162350.89, -162768.22, -162969.88, -162390.31, -162525.09, 0.000, 0.000, 0.000, 19:58:54.661, 1541897934661
252, -162866.58, -162241.22, -162428.27, -162320.39, -162773.44, -162974.78, -162395.28, -162530.19, 0.000, 0.000, 0.000, 19:58:54.661, 1541897934661
253, -162881.89, -162250.69, -162437.98, -162288.45, -162776.03, -162976.16, -162396.45, -162530.33, 0.000, 0.000, 0.000, 19:58:54.661, 1541897934661
254, -162869.94, -162240.28, -162425.58, -162352.38, -162769.78, -162961.48, -162383.19, -162526.70, 0.000, 0.000, 0.000, 19:58:54.661, 1541897934661
255, -162851.47, -162260.42, -162411.81, -162446.14, -162767.59, -162949.83, -162373.95, -162521.05, 0.000, 0.000, 0.000, 19:58:54.661, 1541897934661
0, -162844.09, -162251.80, -162409.83, -162418.44, -162771.16, -162948.48, -162374.16, -162531.47, 0.000, 0.000, 0.000, 19:58:54.661, 1541897934661
1, -162860.22, -162246.34, -162419.59, -162390.14, -162774.97, -162951.09, -162375.31, -162533.31, 0.108, 0.088, 0.982, 19:58:54.661, 1541897934661
2, -162864.22, -162247.84, -162422.83, -162357.72, -162773.67, -162951.00, -162376.08, -162532.84, 0.000, 0.000, 0.000, 19:58:54.661, 1541897934661
3, -162857.17, -162242.30, -162419.81, -162319.25, -162770.47, -162949.58, -162376.19, -162533.36, 0.000, 0.000, 0.000, 19:58:54.661, 1541897934661
4, -162847.09, -162234.08, -162415.97, -162294.73, -162768.97, -162947.50, -162376.33, -162533.19, 0.000, 0.000, 0.000, 19:58:54.662, 1541897934662
5, -162851.52, -162232.48, -162414.30, -162410.61, -162765.16, -162937.64, -162366.91, -162522.88, 0.000, 0.000, 0.000, 19:58:54.662, 1541897934662
6, -162854.38, -162234.25, -162414.39, -162446.48, -162765.55, -162934.88, -162363.64, -162529.67, 0.000, 0.000, 0.000, 19:58:54.662, 1541897934662
7, -162847.36, -162250.28, -162410.52, -162408.13, -162768.95, -162932.45, -162361.08, -162530.34, 0.000, 0.000, 0.000, 19:58:54.662, 1541897934662
8, -162835.94, -162255.98, -162405.80, -162370.00, -162767.50, -162931.30, -162362.16, -162532.02, 0.000, 0.000, 0.000, 19:58:54.662, 1541897934662
9, -162848.77, -162252.16, -162414.59, -162341.50, -162774.61, -162934.42, -162364.72, -162532.09, 0.000, 0.000, 0.000, 19:58:54.662, 1541897934662
10, -162858.42, -162251.84, -162420.55, -162306.22, -162776.11, -162935.58, -162365.56, -162531.38, 0.000, 0.000, 0.000, 19:58:54.662, 1541897934662
11, -162844.98, -162249.70, -162436.02, -162318.78, -162772.11, -162924.34, -162355.69, -162529.63, 0.104, 0.090, 0.980, 19:58:54.662, 1541897934662
12, -162822.19, -162276.94, -162462.73, -162438.77, -162771.13, -162911.78, -162345.30, -162526.22, 0.000, 0.000, 0.000, 19:58:54.663, 1541897934663
13, -162829.61, -162261.86, -162438.75, -162438.25, -162774.73, -162912.67, -162345.98, -162525.03, 0.000, 0.000, 0.000, 19:58:54.663, 1541897934663
14, -162842.59, -162257.77, -162436.30, -162409.69, -162777.05, -162914.95, -162347.89, -162524.27, 0.000, 0.000, 0.000, 19:58:54.663, 1541897934663
15, -162839.97, -162254.77, -162435.00, -162375.00, -162774.89, -162913.02, -162346.95, -162528.95, 0.000, 0.000, 0.000, 19:58:54.663, 1541897934663
16, -162827.95, -162245.73, -162428.75, -162337.56, -162772.97, -162910.28, -162346.84, -162538.13, 0.000, 0.000, 0.000, 19:58:54.663, 1541897934663
17, -162831.42, -162248.36, -162433.45, -162303.55, -162777.58, -162911.56, -162349.59, -162540.03, 0.000, 0.000, 0.000, 19:58:54.663, 1541897934663
18, -162836.56, -162248.67, -162433.05, -162332.59, -162776.80, -162905.05, -162341.41, -162533.97, 0.000, 0.000, 0.000, 19:58:54.664, 1541897934664
19, -162825.48, -162238.64, -162422.67, -162445.81, -162770.50, -162893.11, -162330.30, -162531.64, 0.000, 0.000, 0.000, 19:58:54.664, 1541897934664
20, -162816.52, -162258.64, -162419.03, -162431.39, -162771.05, -162891.33, -162330.83, -162533.25, 0.000, 0.000, 0.000, 19:58:54.664, 1541897934664
21, -162817.41, -162249.00, -162422.13, -162399.52, -162774.58, -162893.78, -162335.17, -162536.78, 0.104, 0.092, 0.980, 19:58:54.664, 1541897934664
22, -162834.84, -162253.13, -162432.98, -162372.77, -162777.83, -162896.58, -162337.16, -162536.56, 0.000, 0.000, 0.000, 19:58:54.664, 1541897934664
23, -162836.45, -162253.39, -162434.09, -162339.17, -162776.81, -162895.70, -162337.05, -162535.95, 0.000, 0.000, 0.000, 19:58:54.664, 1541897934664
24, -162825.05, -162248.33, -162428.42, -162296.66, -162776.27, -162891.38, -162334.86, -162534.70, 0.000, 0.000, 0.000, 19:58:54.664, 1541897934664
25, -162807.91, -162260.38, -162437.47, -162356.78, -162777.44, -162880.22, -162325.47, -162536.78, 0.000, 0.000, 0.000, 19:58:54.664, 1541897934664
26, -162814.59, -162250.45, -162432.42, -162466.23, -162777.33, -162873.80, -162317.78, -162537.67, 0.000, 0.000, 0.000, 19:58:54.664, 1541897934664
27, -162819.31, -162246.69, -162428.36, -162446.92, -162776.59, -162874.42, -162318.31, -162536.50, 0.000, 0.000, 0.000, 19:58:54.665, 1541897934665
28, -162815.59, -162243.34, -162427.70, -162412.44, -162775.48, -162875.95, -162320.75, -162539.17, 0.000, 0.000, 0.000, 19:58:54.665, 1541897934665
29, -162810.03, -162239.53, -162427.80, -162380.45, -162775.75, -162878.77, -162325.88, -162543.83, 0.000, 0.000, 0.000, 19:58:54.665, 1541897934665
30, -162826.28, -162250.22, -162438.75, -162354.75, -162780.28, -162882.91, -162329.69, -162544.39, 0.104, 0.088, 0.978, 19:58:54.665, 1541897934665
31, -162833.33, -162254.45, -162443.94, -162322.14, -162780.31, -162883.89, -162329.58, -162543.48, 0.000, 0.000, 0.000, 19:58:54.665, 1541897934665
32, -162820.14, -162269.92, -162440.77, -162301.52, -162778.63, -162874.72, -162321.14, -162538.61, 0.000, 0.000, 0.000, 19:58:54.665, 1541897934665
33, -162792.98, -162291.23, -162442.50, -162419.86, -162777.95, -162857.53, -162306.88, -162541.14, 0.000, 0.000, 0.000, 19:58:54.665, 1541897934665
34, -162801.50, -162265.30, -162431.66, -162456.52, -162776.44, -162855.97, -162305.78, -162540.92, 0.000, 0.000, 0.000, 19:58:54.665, 1541897934665
35, -162812.45, -162262.34, -162436.94, -162427.14, -162778.11, -162857.39, -162307.45, -162540.36, 0.000, 0.000, 0.000, 19:58:54.665, 1541897934665
36, -162811.59, -162259.44, -162438.09, -162392.84, -162777.31, -162857.75, -162308.23, -162540.38, 0.000, 0.000, 0.000, 19:58:54.666, 1541897934666
37, -162800.88, -162252.56, -162434.48, -162357.34, -162779.69, -162858.05, -162311.23, -162544.11, 0.000, 0.000, 0.000, 19:58:54.666, 1541897934666
38, -162809.16, -162258.48, -162441.44, -162327.91, -162783.48, -162860.08, -162314.83, -162545.17, 0.000, 0.000, 0.000, 19:58:54.666, 1541897934666
39, -162818.30, -162262.95, -162445.28, -162302.31, -162783.86, -162857.44, -162311.80, -162541.75, 0.000, 0.000, 0.000, 19:58:54.666, 1541897934666
40, -162799.91, -162259.72, -162428.28, -162403.67, -162779.53, -162839.69, -162294.02, -162537.50, 0.104, 0.088, 0.984, 19:58:54.666, 1541897934666
41, -162781.33, -162276.98, -162436.27, -162460.23, -162780.03, -162831.72, -162288.13, -162540.03, 0.000, 0.000, 0.000, 19:58:54.666, 1541897934666
42, -162783.08, -162273.38, -162441.45, -162430.70, -162784.00, -162832.55, -162290.67, -162541.02, 0.000, 0.000, 0.000, 19:58:54.666, 1541897934666
43, -162799.69, -162266.81, -162440.33, -162402.50, -162786.13, -162834.91, -162292.55, -162539.91, 0.000, 0.000, 0.000, 19:58:54.666, 1541897934666
44, -162802.03, -162266.94, -162441.41, -162369.86, -162785.33, -162835.16, -162293.53, -162540.67, 0.000, 0.000, 0.000, 19:58:54.666, 1541897934666
45, -162793.16, -162259.41, -162438.14, -162334.39, -162782.55, -162835.42, -162294.47, -162542.94, 0.000, 0.000, 0.000, 19:58:54.666, 1541897934666
46, -162788.69, -162255.64, -162437.31, -162305.47, -162780.80, -162834.89, -162295.03, -162543.80, 0.000, 0.000, 0.000, 19:58:54.666, 1541897934666
47, -162792.84, -162253.61, -162434.72, -162409.73, -162780.19, -162823.92, -162283.63, -162537.80, 0.000, 0.000, 0.000, 19:58:54.667, 1541897934667
48, -162788.94, -162248.83, -162429.97, -162464.28, -162776.03, -162817.36, -162276.91, -162535.17, 0.000, 0.000, 0.000, 19:58:54.667, 1541897934667
49, -162779.55, -162254.81, -162426.05, -162430.03, -162774.92, -162815.47, -162277.14, -162534.91, 0.000, 0.000, 0.000, 19:58:54.667, 1541897934667
50, -162772.86, -162264.70, -162425.53, -162396.13, -162777.22, -162816.42, -162280.16, -162538.08, 0.102, 0.088, 0.980, 19:58:54.667, 1541897934667
51, -162790.75, -162267.28, -162436.06, -162369.69, -162781.14, -162819.09, -162282.52, -162538.02, 0.000, 0.000, 0.000, 19:58:54.667, 1541897934667
52, -162798.50, -162266.84, -162441.94, -162337.97, -162782.20, -162819.98, -162285.19, -162539.06, 0.000, 0.000, 0.000, 19:58:54.667, 1541897934667
53, -162788.05, -162267.52, -162439.20, -162303.09, -162779.14, -162815.27, -162281.84, -162537.64, 0.000, 0.000, 0.000, 19:58:54.667, 1541897934667
54, -162761.73, -162284.75, -162443.52, -162401.64, -162780.86, -162801.56, -162269.33, -162539.72, 0.000, 0.000, 0.000, 19:58:54.667, 1541897934667
55, -162770.45, -162261.97, -162432.38, -162477.42, -162779.92, -162796.38, -162263.58, -162538.44, 0.000, 0.000, 0.000, 19:58:54.667, 1541897934667
56, -162777.94, -162261.05, -162432.83, -162448.77, -162778.86, -162795.81, -162261.97, -162535.83, 0.000, 0.000, 0.000, 19:58:54.667, 1541897934667
57, -162772.69, -162256.58, -162430.05, -162412.48, -162776.39, -162793.38, -162260.83, -162534.80, 0.000, 0.000, 0.000, 19:58:54.668, 1541897934668
58, -162760.81, -162249.11, -162426.28, -162376.55, -162778.78, -162793.72, -162263.41, -162538.80, 0.000, 0.000, 0.000, 19:58:54.668, 1541897934668
59, -162773.22, -162257.59, -162436.38, -162349.25, -162782.88, -162797.30, -162266.63, -162540.00, 0.000, 0.000, 0.000, 19:58:54.668, 1541897934668
60, -162787.39, -162266.08, -162445.36, -162318.94, -162786.52, -162800.73, -162269.88, -162540.30, 0.102, 0.084, 0.984, 19:58:54.668, 1541897934668
61, -162776.28, -162261.45, -162438.81, -162325.83, -162783.69, -162790.97, -162261.50, -162537.56, 0.000, 0.000, 0.000, 19:58:54.668, 1541897934668
62, -162751.56, -162278.06, -162445.14, -162439.22, -162782.92, -162777.69, -162250.72, -162537.05, 0.000, 0.000, 0.000, 19:58:54.668, 1541897934668
63, -162755.94, -162263.17, -162437.55, -162438.66, -162785.31, -162777.63, -162250.09, -162535.70, 0.000, 0.000, 0.000, 19:58:54.668, 1541897934668
64, -162770.34, -162263.53, -162440.77, -162410.05, -162786.78, -162778.23, -162249.78, -162533.52, 0.000, 0.000, 0.000, 19:58:54.668, 1541897934668
65, -162769.84, -162261.39, -162441.23, -162375.34, -162784.42, -162777.05, -162249.83, -162532.53, 0.000, 0.000, 0.000, 19:58:54.668, 1541897934668
66, -162758.78, -162253.59, -162437.91, -162339.19, -162781.41, -162777.20, -162252.41, -162535.84, 0.000, 0.000, 0.000, 19:58:54.669, 1541897934669
67, -162761.33, -162255.36, -162441.55, -162304.55, -162782.58, -162779.05, -162255.75, -162537.95, 0.000, 0.000, 0.000, 19:58:54.669, 1541897934669
68, -162769.72, -162256.98, -162443.17, -162349.41, -162782.25, -162772.13, -162247.28, -162535.33, 0.000, 0.000, 0.000, 19:58:54.669, 1541897934669
69, -162761.19, -162249.16, -162435.13, -162454.86, -162779.55, -162761.55, -162237.78, -162538.70, 0.106, 0.080, 0.986, 19:58:54.669, 1541897934669
70, -162751.25, -162261.20, -162430.20, -162432.83, -162780.13, -162759.56, -162238.17, -162539.16, 0.000, 0.000, 0.000, 19:58:54.669, 1541897934669
71, -162747.45, -162260.56, -162429.92, -162399.83, -162785.25, -162760.55, -162240.78, -162540.92, 0.000, 0.000, 0.000, 19:58:54.669, 1541897934669
72, -162763.78, -162259.69, -162439.31, -162372.72, -162787.91, -162762.09, -162241.66, -162537.98, 0.000, 0.000, 0.000, 19:58:54.669, 1541897934669
73, -162767.92, -162261.33, -162442.44, -162340.16, -162787.09, -162762.05, -162241.98, -162537.39, 0.000, 0.000, 0.000, 19:58:54.669, 1541897934669
74, -162755.94, -162269.84, -162444.11, -162306.61, -162785.88, -162756.61, -162239.17, -162536.20, 0.000, 0.000, 0.000, 19:58:54.669, 1541897934669
75, -162733.05, -162279.67, -162445.91, -162411.09, -162788.80, -162742.47, -162227.64, -162530.92, 0.000, 0.000, 0.000, 19:58:54.670, 1541897934670
76, -162746.11, -162260.53, -162436.22, -162480.50, -162789.97, -162741.08, -162225.52, -162534.75, 0.000, 0.000, 0.000, 19:58:54.670, 1541897934670
77, -162753.03, -162262.13, -162439.89, -162451.67, -162789.97, -162742.06, -162226.20, -162540.41, 0.000, 0.000, 0.000, 19:58:54.670, 1541897934670
78, -162747.27, -162256.92, -162437.77, -162416.39, -162787.53, -162741.13, -162226.59, -162540.98, 0.000, 0.000, 0.000, 19:58:54.670, 1541897934670
79, -162738.39, -162250.39, -162435.75, -162382.00, -162787.09, -162742.39, -162230.13, -162545.48, 0.106, 0.084, 0.980, 19:58:54.670, 1541897934670
80, -162752.55, -162260.30, -162444.11, -162354.34, -162794.28, -162743.81, -162231.28, -162543.94, 0.000, 0.000, 0.000, 19:58:54.670, 1541897934670
81, -162762.14, -162265.48, -162450.73, -162320.44, -162795.22, -162744.72, -162231.89, -162542.86, 0.000, 0.000, 0.000, 19:58:54.670, 1541897934670
82, -162747.52, -162269.72, -162442.34, -162343.39, -162788.23, -162733.38, -162221.17, -162539.63, 0.000, 0.000, 0.000, 19:58:54.670, 1541897934670
83, -162722.48, -162290.92, -162448.25, -162466.80, -162783.80, -162721.20, -162211.05, -162538.11, 0.000, 0.000, 0.000, 19:58:54.670, 1541897934670
84, -162733.55, -162272.52, -162442.23, -162466.28, -162789.11, -162723.31, -162212.59, -162537.77, 0.000, 0.000, 0.000, 19:58:54.670, 1541897934670
85, -162747.09, -162272.14, -162447.78, -162437.97, -162791.50, -162725.34, -162214.56, -162538.13, 0.000, 0.000, 0.000, 19:58:54.671, 1541897934671
86, -162745.02, -162269.69, -162447.42, -162402.78, -162789.09, -162724.20, -162215.09, -162538.44, 0.000, 0.000, 0.000, 19:58:54.671, 1541897934671
87, -162733.81, -162261.72, -162443.42, -162365.23, -162786.45, -162724.19, -162217.95, -162542.03, 0.000, 0.000, 0.000, 19:58:54.671, 1541897934671
88, -162738.59, -162265.48, -162448.52, -162334.36, -162787.22, -162726.38, -162219.88, -162542.47, 0.000, 0.000, 0.000, 19:58:54.671, 1541897934671
89, -162750.52, -162274.31, -162454.86, -162308.03, -162789.56, -162724.11, -162197.34, -162540.67, 0.108, 0.086, 0.976, 19:58:54.672, 1541897934672
90, -162724.72, -162298.45, -162482.63, -162402.42, -162794.39, -162698.31, -162007.55, -162552.66, 0.000, 0.000, 0.000, 19:58:54.672, 1541897934672
91, -162679.55, -162344.89, -162513.63, -162443.22, -162790.78, -162664.95, -162077.95, -162547.89, 0.000, 0.000, 0.000, 19:58:55.129, 1541897935129
92, -162651.16, -162300.30, -162452.83, -162386.47, -162787.44, -162638.75, -162361.88, -162547.00, 0.000, 0.000, 0.000, 19:58:55.129, 1541897935129
93, -162649.44, -162249.45, -162414.86, -162340.52, -162777.78, -162622.44, -162801.97, -162542.30, 0.000, 0.000, 0.000, 19:58:55.129, 1541897935129
94, -162643.98, -162273.70, -162449.72, -162297.64, -162781.06, -162614.95, -163001.45, -162540.77, 0.000, 0.000, 0.000, 19:58:55.129, 1541897935129
95, -162615.63, -162321.73, -162516.38, -162357.48, -162783.08, -162594.88, -162984.31, -162543.72, 0.000, 0.000, 0.000, 19:58:55.129, 1541897935129
96, -162595.33, -162286.58, -162461.34, -162468.59, -162782.47, -162580.81, -162971.08, -162542.80, 0.000, 0.000, 0.000, 19:58:55.129, 1541897935129
97, -162612.00, -162261.45, -162438.08, -162454.75, -162785.27, -162581.36, -162970.45, -162538.91, 0.000, 0.000, 0.000, 19:58:55.129, 1541897935129
98, -162616.64, -162262.91, -162441.09, -162421.31, -162785.20, -162581.70, -162970.25, -162537.88, 0.000, 0.000, 0.000, 19:58:55.130, 1541897935130
99, -162609.47, -162257.05, -162438.97, -162384.28, -162782.20, -162581.59, -162970.86, -162539.83, 0.104, 0.080, 0.980, 19:58:55.130, 1541897935130
100, -162602.77, -162253.52, -162438.97, -162350.48, -162782.70, -162584.45, -162975.73, -162546.47, 0.000, 0.000, 0.000, 19:58:55.130, 1541897935130
101, -162620.52, -162265.72, -162449.95, -162321.36, -162787.23, -162587.28, -162977.53, -162546.58, 0.000, 0.000, 0.000, 19:58:55.130, 1541897935130
102, -162622.23, -162264.78, -162448.94, -162308.69, -162786.39, -162582.16, -162971.92, -162543.67, 0.000, 0.000, 0.000, 19:58:55.130, 1541897935130
103, -162601.67, -162268.56, -162435.28, -162429.67, -162785.83, -162566.13, -162956.17, -162544.81, 0.000, 0.000, 0.000, 19:58:55.130, 1541897935130
104, -162584.92, -162274.27, -162449.14, -162452.81, -162781.77, -162561.42, -162953.44, -162545.28, 0.000, 0.000, 0.000, 19:58:55.130, 1541897935130
105, -162598.47, -162260.73, -162445.08, -162425.00, -162784.55, -162563.53, -162955.52, -162544.88, 0.000, 0.000, 0.000, 19:58:55.130, 1541897935130
106, -162609.92, -162266.84, -162448.72, -162394.73, -162786.66, -162564.86, -162956.69, -162544.36, 0.000, 0.000, 0.000, 19:58:55.130, 1541897935130
107, -162606.50, -162263.52, -162448.25, -162359.67, -162784.02, -162564.50, -162957.20, -162544.50, 0.000, 0.000, 0.000, 19:58:55.130, 1541897935130
108, -162596.75, -162256.58, -162446.34, -162322.50, -162783.44, -162566.44, -162961.06, -162550.08, 0.000, 0.000, 0.000, 19:58:55.130, 1541897935130
109, -162600.70, -162257.13, -162447.47, -162324.36, -162782.86, -162563.19, -162957.64, -162544.81, 0.110, 0.082, 0.976, 19:58:55.130, 1541897935130
110, -162603.17, -162254.80, -162443.83, -162445.56, -162780.81, -162553.22, -162946.94, -162535.83, 0.000, 0.000, 0.000, 19:58:55.130, 1541897935130
111, -162597.63, -162258.11, -162440.27, -162446.11, -162782.52, -162548.50, -162943.25, -162542.58, 0.000, 0.000, 0.000, 19:58:55.130, 1541897935130
112, -162583.81, -162269.61, -162432.95, -162406.34, -162784.67, -162546.34, -162942.88, -162543.42, 0.000, 0.000, 0.000, 19:58:55.131, 1541897935131
113, -162588.23, -162257.25, -162437.36, -162375.89, -162786.44, -162547.95, -162944.53, -162545.03, 0.000, 0.000, 0.000, 19:58:55.131, 1541897935131
114, -162604.11, -162265.30, -162447.95, -162348.41, -162789.47, -162550.86, -162945.63, -162543.59, 0.000, 0.000, 0.000, 19:58:55.131, 1541897935131
115, -162603.55, -162265.30, -162447.75, -162308.95, -162787.77, -162549.02, -162944.44, -162543.89, 0.000, 0.000, 0.000, 19:58:55.131, 1541897935131
116, -162581.00, -162295.42, -162450.97, -162358.13, -162788.22, -162535.31, -162932.88, -162544.94, 0.000, 0.000, 0.000, 19:58:55.131, 1541897935131
117, -162569.13, -162277.23, -162441.47, -162476.69, -162786.70, -162526.56, -162925.38, -162540.16, 0.000, 0.000, 0.000, 19:58:55.131, 1541897935131
118, -162585.22, -162266.86, -162441.47, -162465.55, -162788.31, -162527.80, -162925.19, -162552.19, 0.110, 0.082, 0.978, 19:58:55.131, 1541897935131
119, -162586.56, -162266.33, -162442.64, -162431.00, -162786.20, -162525.98, -162923.78, -162556.75, 0.000, 0.000, 0.000, 19:58:55.131, 1541897935131
120, -162576.50, -162258.95, -162437.41, -162393.11, -162783.34, -162523.91, -162923.45, -162555.67, 0.000, 0.000, 0.000, 19:58:55.131, 1541897935131
121, -162572.03, -162256.52, -162437.39, -162359.28, -162788.02, -162526.44, -162927.41, -162559.69, 0.000, 0.000, 0.000, 19:58:55.131, 1541897935131
122, -162589.31, -162269.20, -162448.70, -162330.41, -162792.05, -162529.66, -162929.66, -162559.47, 0.000, 0.000, 0.000, 19:58:55.131, 1541897935131
123, -162588.02, -162265.83, -162446.53, -162317.17, -162787.69, -162523.64, -162924.59, -162553.03, 0.000, 0.000, 0.000, 19:58:55.131, 1541897935131
124, -162570.94, -162262.50, -162432.52, -162436.80, -162781.45, -162510.81, -162912.45, -162542.13, 0.000, 0.000, 0.000, 19:58:55.131, 1541897935131
125, -162561.73, -162271.47, -162429.50, -162460.28, -162781.41, -162510.30, -162912.53, -162543.59, 0.000, 0.000, 0.000, 19:58:55.131, 1541897935131
