%OpenBCI Raw EEG Data
%Number of channels = 8
%Sample Rate = 250.0 Hz
%First Column = SampleIndex
%Last Column = Timestamp 
%Other Columns = EEG data in microvolts followed by Accel Data (in G) interleaved with Aux Data
0, -163194.27, 187500.00, 187500.00, 187500.00, -165727.36, -167171.95, -166096.41, -164623.75, 0.012, 0.178, 0.464, 22:15:15.477, 1541906115477
1, -161144.05, 187500.00, 187500.00, 187500.00, -165615.89, -167161.84, -165983.25, -164511.50, 0.000, 0.000, 0.000, 22:15:15.478, 1541906115478
2, -159127.86, 187500.00, 187500.00, 187500.00, -165413.09, -167146.05, -165773.41, -164314.27, 0.000, 0.000, 0.000, 22:15:15.478, 1541906115478
3, -161961.22, 187500.00, 187500.00, 187500.00, -165620.44, -167169.11, -165984.36, -164515.36, 0.000, 0.000, 0.000, 22:15:15.478, 1541906115478
4, -163989.06, 187500.00, 187500.00, 187500.00, -165835.88, -167188.06, -166205.23, -164718.98, 0.000, 0.000, 0.000, 22:15:15.478, 1541906115478
5, -162410.58, 187500.00, 187500.00, 187500.00, -165757.53, -167180.92, -166128.28, -164640.06, 0.000, 0.000, 0.000, 22:15:15.478, 1541906115478
6, -159910.72, 187500.00, 187500.00, 187500.00, -165510.28, -167162.03, -165874.25, -164401.05, 0.000, 0.000, 0.000, 22:15:15.478, 1541906115478
7, -162084.25, 187500.00, 187500.00, 187500.00, -165654.30, -167176.05, -166018.98, -164539.44, 0.012, 0.274, 0.690, 22:15:15.479, 1541906115479
8, -164530.56, 187500.00, 187500.00, 187500.00, -165906.52, -167198.73, -166275.45, -164777.23, 0.000, 0.000, 0.000, 22:15:15.479, 1541906115479
9, -163659.53, 187500.00, 187500.00, 187500.00, -165906.88, -167199.36, -166277.19, -164772.34, 0.000, 0.000, 0.000, 22:15:15.479, 1541906115479
10, -160864.19, 187500.00, 187500.00, 187500.00, -165671.11, -167179.58, -166038.31, -164545.48, 0.000, 0.000, 0.000, 22:15:15.479, 1541906115479
11, -162317.89, 187500.00, 187500.00, 187500.00, -165753.00, -167190.17, -166117.88, -164624.75, 0.000, 0.000, 0.000, 22:15:15.479, 1541906115479
12, -165194.97, 187500.00, 187500.00, 187500.00, -166017.59, -167214.94, -166385.31, -164873.70, 0.000, 0.000, 0.000, 22:15:15.479, 1541906115479
13, -164981.19, 187500.00, 187500.00, 187500.00, -166055.47, -167217.89, -166425.86, -164903.83, 0.000, 0.000, 0.000, 22:15:15.479, 1541906115479
14, -162021.13, 187500.00, 187500.00, 187500.00, -165814.88, -167197.13, -166183.25, -164671.42, 0.000, 0.000, 0.000, 22:15:15.480, 1541906115480
15, -162379.25, 187500.00, 187500.00, 187500.00, -165802.70, -167197.25, -166168.34, -164661.36, 0.000, 0.000, 0.000, 22:15:15.480, 1541906115480
16, -165269.83, 187500.00, 187500.00, 187500.00, -166059.58, -167221.39, -166426.33, -164903.88, 0.000, 0.000, 0.000, 22:15:15.480, 1541906115480
17, -165515.53, 187500.00, 187500.00, 187500.00, -166138.77, -167228.30, -166507.80, -164973.58, 0.012, 0.320, 0.802, 22:15:15.480, 1541906115480
18, -162592.42, 187500.00, 187500.00, 187500.00, -165921.48, -167211.72, -166291.36, -164764.14, 0.000, 0.000, 0.000, 22:15:15.480, 1541906115480
19, -161938.94, 187500.00, 187500.00, 187500.00, -165832.73, -167206.58, -166199.44, -164682.47, 0.000, 0.000, 0.000, 22:15:15.488, 1541906115488
20, -164840.89, 187500.00, 187500.00, 187500.00, -166096.08, -167231.34, -166462.58, -164931.08, 0.000, 0.000, 0.000, 22:15:15.489, 1541906115489
21, -165678.64, 187500.00, 187500.00, 187500.00, -166237.52, -167243.19, -166605.61, -165059.47, 0.000, 0.000, 0.000, 22:15:15.490, 1541906115490
22, -163108.98, 187500.00, 187500.00, 187500.00, -166073.91, -167230.06, -166444.92, -164900.56, 0.000, 0.000, 0.000, 22:15:15.490, 1541906115490
23, -161562.89, 187500.00, 187500.00, 187500.00, -165918.20, -167218.41, -166285.80, -164754.41, 0.000, 0.000, 0.000, 22:15:15.491, 1541906115491
24, -164275.59, 187500.00, 187500.00, 187500.00, -166155.73, -167238.67, -166519.69, -164977.66, 0.000, 0.000, 0.000, 22:15:15.491, 1541906115491
25, -165618.67, 187500.00, 187500.00, 187500.00, -166340.67, -167257.09, -166703.16, -165145.80, 0.000, 0.000, 0.000, 22:15:15.491, 1541906115491
26, -163469.30, 187500.00, 187500.00, 187500.00, -166224.38, -167247.06, -166592.16, -165029.88, 0.000, 0.000, 0.000, 22:15:15.491, 1541906115491
27, -161111.88, 187500.00, 187500.00, 187500.00, -166005.23, -167230.97, -166371.84, -164824.95, 0.018, 0.346, 0.864, 22:15:15.491, 1541906115491
28, -163340.70, 187500.00, 187500.00, 187500.00, -166191.16, -167249.30, -166552.34, -165000.92, 0.000, 0.000, 0.000, 22:15:15.492, 1541906115492
29, -165062.64, 187500.00, 187500.00, 187500.00, -166399.59, -167267.13, -166758.25, -165192.59, 0.000, 0.000, 0.000, 22:15:15.492, 1541906115492
30, -163412.97, 187500.00, 187500.00, 187500.00, -166328.33, -167260.83, -166693.47, -165120.02, 0.000, 0.000, 0.000, 22:15:15.492, 1541906115492
31, -160579.59, 187500.00, 187500.00, 187500.00, -166073.50, -167240.69, -166440.94, -164880.20, 0.000, 0.000, 0.000, 22:15:15.493, 1541906115493
32, -162216.13, 187500.00, 187500.00, 187500.00, -166195.81, -167254.13, -166557.19, -164998.81, 0.000, 0.000, 0.000, 22:15:15.494, 1541906115494
33, -164381.36, 187500.00, 187500.00, 187500.00, -166442.06, -167274.55, -166796.98, -165226.75, 0.000, 0.000, 0.000, 22:15:15.495, 1541906115495
34, -163412.23, 187500.00, 187500.00, 187500.00, -166442.84, -167276.50, -166801.92, -165219.97, 0.000, 0.000, 0.000, 22:15:15.495, 1541906115495
35, -160403.17, 187500.00, 187500.00, 187500.00, -166191.27, -167257.30, -166557.50, -164980.34, 0.000, 0.000, 0.000, 22:15:15.495, 1541906115495
36, -161310.70, 187500.00, 187500.00, 187500.00, -166240.11, -167263.89, -166599.19, -165029.52, 0.000, 0.000, 0.000, 22:15:15.495, 1541906115495
37, -163865.78, 187500.00, 187500.00, 187500.00, -166506.20, -167286.31, -166855.52, -165276.91, 0.016, 0.354, 0.890, 22:15:15.495, 1541906115495
38, -163607.25, 187500.00, 187500.00, 187500.00, -166563.11, -167293.81, -166914.95, -165322.39, 0.000, 0.000, 0.000, 22:15:15.495, 1541906115495
39, -160748.22, 187500.00, 187500.00, 187500.00, -166325.63, -167276.97, -166689.67, -165094.92, 0.000, 0.000, 0.000, 22:15:15.496, 1541906115496
40, -160885.22, 187500.00, 187500.00, 187500.00, -166287.94, -167273.98, -166645.61, -165065.64, 0.000, 0.000, 0.000, 22:15:15.496, 1541906115496
41, -163562.39, 187500.00, 187500.00, 187500.00, -166560.20, -167297.09, -166904.69, -165321.56, 0.000, 0.000, 0.000, 22:15:15.496, 1541906115496
42, -163767.45, 187500.00, 187500.00, 187500.00, -166669.64, -167306.47, -167012.91, -165417.80, 0.000, 0.000, 0.000, 22:15:15.496, 1541906115496
43, -160932.55, 187500.00, 187500.00, 187500.00, -166474.58, -167289.33, -166831.92, -165224.56, 0.000, 0.000, 0.000, 22:15:15.496, 1541906115496
44, -160086.03, 187500.00, 187500.00, 187500.00, -166360.19, -167283.20, -166715.94, -165121.78, 0.000, 0.000, 0.000, 22:15:15.496, 1541906115496
45, -162691.88, 187500.00, 187500.00, 187500.00, -166617.67, -167306.84, -166956.84, -165367.45, 0.000, 0.000, 0.000, 22:15:15.496, 1541906115496
46, -163401.80, 187500.00, 187500.00, 187500.00, -166776.02, -167320.34, -167108.92, -165511.98, 0.000, 0.000, 0.000, 22:15:15.496, 1541906115496
47, -160866.45, 187500.00, 187500.00, 187500.00, -166632.05, -167307.30, -166981.30, -165363.36, 0.014, 0.356, 0.908, 22:15:15.496, 1541906115496
48, -159178.44, 187500.00, 187500.00, 187500.00, -166453.25, -167295.06, -166805.25, -165195.64, 0.000, 0.000, 0.000, 22:15:15.496, 1541906115496
49, -161646.30, 187500.00, 187500.00, 187500.00, -166685.45, -167317.23, -167016.03, -165422.13, 0.000, 0.000, 0.000, 22:15:15.496, 1541906115496
50, -163015.72, 187500.00, 187500.00, 187500.00, -166898.13, -167334.73, -167216.02, -165625.28, 0.000, 0.000, 0.000, 22:15:15.497, 1541906115497
51, -161154.81, 187500.00, 187500.00, 187500.00, -166831.25, -167329.53, -167165.11, -165546.02, 0.000, 0.000, 0.000, 22:15:15.497, 1541906115497
52, -159007.00, 187500.00, 187500.00, 187500.00, -166623.63, -167314.22, -166969.02, -165345.50, 0.000, 0.000, 0.000, 22:15:15.497, 1541906115497
53, -161238.70, 187500.00, 187500.00, 187500.00, -166803.39, -167331.80, -167123.08, -165531.94, 0.000, 0.000, 0.000, 22:15:15.497, 1541906115497
54, -163152.95, 187500.00, 187500.00, 187500.00, -167044.84, -167352.58, -167348.64, -165771.50, 0.000, 0.000, 0.000, 22:15:15.497, 1541906115497
55, -161790.33, 187500.00, 187500.00, 187500.00, -167040.25, -167353.00, -167354.05, -165748.66, 0.000, 0.000, 0.000, 22:15:15.497, 1541906115497
56, -159158.88, 187500.00, 187500.00, 187500.00, -166818.23, -167333.00, -167154.77, -165522.03, 0.000, 0.000, 0.000, 22:15:15.497, 1541906115497
57, -160876.00, 187500.00, 187500.00, 187500.00, -166923.41, -167346.44, -167236.03, -165645.86, 0.018, 0.358, 0.910, 22:15:15.497, 1541906115497
58, -163310.83, 187500.00, 187500.00, 187500.00, -167174.41, -167369.83, -167456.97, -165907.73, 0.000, 0.000, 0.000, 22:15:15.497, 1541906115497
59, -162605.83, 187500.00, 187500.00, 187500.00, -167216.80, -167372.27, -167492.88, -165929.23, 0.000, 0.000, 0.000, 22:15:15.497, 1541906115497
60, -159691.56, 187500.00, 187500.00, 187500.00, -167003.00, -167355.53, -167319.70, -165689.94, 0.000, 0.000, 0.000, 22:15:15.498, 1541906115498
61, -160470.36, 187500.00, 187500.00, 187500.00, -167011.80, -167360.61, -167318.47, -165725.42, 0.000, 0.000, 0.000, 22:15:15.498, 1541906115498
62, -163052.66, 187500.00, 187500.00, 187500.00, -167253.98, -167382.38, -167500.02, -165993.17, 0.000, 0.000, 0.000, 22:15:15.498, 1541906115498
63, -162986.92, 187500.00, 187500.00, 187500.00, -167335.70, -167389.61, -167533.38, -166059.06, 0.000, 0.000, 0.000, 22:15:15.498, 1541906115498
64, -160232.44, 187500.00, 187500.00, 187500.00, -167144.44, -167371.69, -167420.17, -165823.14, 0.000, 0.000, 0.000, 22:15:15.499, 1541906115499
65, -160197.11, 187500.00, 187500.00, 187500.00, -167056.73, -167370.45, -167361.34, -165757.17, 0.000, 0.000, 0.000, 22:15:15.499, 1541906115499
66, -162813.08, 187500.00, 187500.00, 187500.00, -167268.94, -167393.58, -167512.27, -166001.45, 0.000, 0.000, 0.000, 22:15:15.499, 1541906115499
67, -163109.39, 187500.00, 187500.00, 187500.00, -167372.06, -167402.25, -167549.63, -166096.34, 0.000, 0.000, 0.000, 22:15:15.499, 1541906115499
68, -160397.36, 187500.00, 187500.00, 187500.00, -167212.86, -167384.86, -167464.20, -165888.25, 0.024, 0.360, 0.918, 22:15:15.499, 1541906115499
69, -159423.05, 187500.00, 187500.00, 187500.00, -167057.11, -167375.25, -167362.61, -165742.25, 0.000, 0.000, 0.000, 22:15:15.499, 1541906115499
70, -161998.75, 187500.00, 187500.00, 187500.00, -167248.33, -167395.22, -167501.64, -165968.27, 0.000, 0.000, 0.000, 22:15:15.499, 1541906115499
71, -162855.08, 187500.00, 187500.00, 187500.00, -167386.08, -167407.67, -167555.94, -166107.94, 0.000, 0.000, 0.000, 22:15:15.500, 1541906115500
72, -160483.00, 187500.00, 187500.00, 187500.00, -167270.86, -167393.86, -167499.05, -165945.73, 0.000, 0.000, 0.000, 22:15:15.500, 1541906115500
73, -158618.45, 187500.00, 187500.00, 187500.00, -167065.31, -167376.41, -167369.95, -165735.86, 0.000, 0.000, 0.000, 22:15:15.500, 1541906115500
74, -160843.02, 187500.00, 187500.00, 187500.00, -167218.00, -167395.92, -167485.17, -165926.06, 0.000, 0.000, 0.000, 22:15:15.500, 1541906115500
75, -162077.64, 187500.00, 187500.00, 187500.00, -167389.14, -167413.83, -167561.30, -166108.30, 0.000, 0.000, 0.000, 22:15:15.500, 1541906115500
76, -160125.03, 187500.00, 187500.00, 187500.00, -167328.81, -167406.89, -167530.72, -166004.30, 0.000, 0.000, 0.000, 22:15:15.500, 1541906115500
77, -157678.36, 187500.00, 187500.00, 187500.00, -167098.91, -167389.61, -167395.30, -165753.02, 0.000, 0.000, 0.000, 22:15:15.500, 1541906115500
78, -159561.14, 187500.00, 187500.00, 187500.00, -167197.61, -167401.28, -167472.20, -165891.78, 0.022, 0.366, 0.926, 22:15:15.501, 1541906115501
79, -161266.72, 187500.00, 187500.00, 187500.00, -167393.30, -167420.02, -167565.92, -166105.39, 0.000, 0.000, 0.000, 22:15:15.501, 1541906115501
80, -159953.75, 187500.00, 187500.00, 187500.00, -167382.28, -167419.56, -167556.58, -166060.25, 0.000, 0.000, 0.000, 22:15:15.501, 1541906115501
81, -157249.36, 187500.00, 187500.00, 187500.00, -167154.55, -167399.89, -167434.77, -165797.67, 0.000, 0.000, 0.000, 22:15:15.501, 1541906115501
82, -158726.48, 187500.00, 187500.00, 187500.00, -167196.25, -167406.80, -167471.48, -165880.92, 0.000, 0.000, 0.000, 22:15:15.501, 1541906115501
83, -161001.22, 187500.00, 187500.00, 187500.00, -167416.48, -167429.27, -167574.53, -166132.95, 0.000, 0.000, 0.000, 22:15:15.501, 1541906115501
84, -160349.64, 187500.00, 187500.00, 187500.00, -167469.64, -167436.58, -167584.14, -166162.80, 0.000, 0.000, 0.000, 22:15:15.505, 1541906115505
85, -157549.70, 187500.00, 187500.00, 187500.00, -167280.38, -167417.08, -167515.75, -165920.80, 0.000, 0.000, 0.000, 22:15:15.507, 1541906115507
86, -158278.70, 187500.00, 187500.00, 187500.00, -167262.03, -167418.92, -167517.58, -165940.28, 0.000, 0.000, 0.000, 22:15:15.507, 1541906115507
87, -160893.70, 187500.00, 187500.00, 187500.00, -167467.89, -167444.31, -167592.45, -166217.83, 0.000, 0.000, 0.000, 22:15:15.507, 1541906115507
88, -160837.84, 187500.00, 187500.00, 187500.00, -167529.83, -167453.92, -167605.59, -166314.66, 0.028, 0.368, 0.924, 22:15:15.507, 1541906115507
89, -158110.17, 187500.00, 187500.00, 187500.00, -167432.06, -167436.70, -167582.56, -166111.72, 0.000, 0.000, 0.000, 22:15:15.507, 1541906115507
90, -157995.33, 187500.00, 187500.00, 187500.00, -167378.53, -167434.03, -167578.59, -166063.64, 0.000, 0.000, 0.000, 22:15:15.507, 1541906115507
91, -160826.31, 187500.00, 187500.00, 187500.00, -167523.03, -167460.97, -167613.02, -166354.75, 0.000, 0.000, 0.000, 22:15:15.507, 1541906115507
92, -161475.34, 187500.00, 187500.00, 187500.00, -167562.95, -167475.98, -167630.13, -166517.08, 0.000, 0.000, 0.000, 22:15:15.507, 1541906115507
93, -159142.47, 187500.00, 187500.00, 187500.00, -167540.63, -167464.77, -167617.02, -166371.05, 0.000, 0.000, 0.000, 22:15:15.507, 1541906115507
94, -158326.39, 187500.00, 187500.00, 187500.00, -167517.69, -167456.94, -167607.77, -166259.42, 0.000, 0.000, 0.000, 22:15:15.508, 1541906115508
95, -161227.52, 187500.00, 187500.00, 187500.00, -167564.81, -167480.19, -167634.28, -166540.78, 0.000, 0.000, 0.000, 22:15:15.508, 1541906115508
96, -162509.58, 187500.00, 187500.00, 187500.00, -167589.66, -167499.14, -167654.84, -166755.91, 0.000, 0.000, 0.000, 22:15:15.508, 1541906115508
97, -160633.83, 187500.00, 187500.00, 187500.00, -167583.88, -167494.73, -167649.86, -166673.98, 0.000, 0.000, 0.000, 22:15:15.508, 1541906115508
98, -159118.69, 187500.00, 187500.00, 187500.00, -167569.45, -167482.59, -167636.64, -166511.81, 0.028, 0.366, 0.924, 22:15:15.508, 1541906115508
99, -161785.97, 187500.00, 187500.00, 187500.00, -167595.72, -167505.58, -167661.23, -166757.16, 0.000, 0.000, 0.000, 22:15:15.508, 1541906115508
100, -163574.58, 187500.00, 187500.00, 187500.00, -167620.47, -167528.23, -167685.06, -167010.53, 0.000, 0.000, 0.000, 22:15:15.508, 1541906115508
101, -162079.09, 187500.00, 187500.00, 187500.00, -167618.44, -167526.41, -167683.14, -166989.19, 0.000, 0.000, 0.000, 22:15:15.508, 1541906115508
102, -159821.53, 187500.00, 187500.00, 187500.00, -167602.69, -167512.06, -167667.88, -166795.95, 0.000, 0.000, 0.000, 22:15:15.508, 1541906115508
103, -161925.78, 187500.00, 187500.00, 187500.00, -167619.73, -167527.91, -167684.50, -166974.44, 0.000, 0.000, 0.000, 22:15:15.508, 1541906115508
104, -164113.83, 187500.00, 187500.00, 187500.00, -167646.06, -167552.84, -167710.52, -167245.11, 0.000, 0.000, 0.000, 22:15:15.508, 1541906115508
105, -163100.89, 187500.00, 187500.00, 187500.00, -167650.23, -167556.92, -167714.78, -167284.66, 0.000, 0.000, 0.000, 22:15:15.509, 1541906115509
106, -160365.63, 187500.00, 187500.00, 187500.00, -167632.98, -167540.53, -167697.69, -167093.17, 0.000, 0.000, 0.000, 22:15:15.509, 1541906115509
107, -161760.69, 187500.00, 187500.00, 187500.00, -167645.47, -167552.52, -167710.09, -167187.67, 0.000, 0.000, 0.000, 22:15:15.509, 1541906115509
108, -164381.30, 187500.00, 187500.00, 187500.00, -167673.70, -167579.77, -167738.59, -167466.50, 0.028, 0.364, 0.920, 22:15:15.509, 1541906115509
109, -164067.97, 187500.00, 187500.00, 187500.00, -167682.13, -167587.97, -167747.59, -167563.69, 0.000, 0.000, 0.000, 22:15:15.509, 1541906115509
110, -161309.61, 187500.00, 187500.00, 187500.00, -167665.91, -167572.19, -167730.81, -167410.16, 0.000, 0.000, 0.000, 22:15:15.509, 1541906115509
111, -161960.11, 187500.00, 187500.00, 187500.00, -167672.75, -167578.84, -167737.75, -167420.44, 0.000, 0.000, 0.000, 22:15:15.509, 1541906115509
112, -164892.92, 187500.00, 187500.00, 187500.00, -167702.81, -167608.19, -167769.70, -167648.67, 0.000, 0.000, 0.000, 22:15:15.509, 1541906115509
113, -165195.53, 187500.00, 187500.00, 187500.00, -167714.72, -167619.89, -167782.41, -167712.00, 0.000, 0.000, 0.000, 22:15:15.509, 1541906115509
114, -162498.77, 187500.00, 187500.00, 187500.00, -167703.66, -167609.11, -167770.67, -167661.84, 0.000, 0.000, 0.000, 22:15:15.509, 1541906115509
115, -162199.05, 187500.00, 187500.00, 187500.00, -167704.19, -167609.64, -167770.75, -167641.00, 0.000, 0.000, 0.000, 22:15:15.509, 1541906115509
116, -165274.84, 187500.00, 187500.00, 187500.00, -167730.59, -167635.48, -167798.05, -167727.08, 0.000, 0.000, 0.000, 22:15:15.509, 1541906115509
117, -166246.45, 187500.00, 187500.00, 187500.00, -167747.44, -167652.09, -167814.83, -167751.94, 0.000, 0.000, 0.000, 22:15:15.509, 1541906115509
118, -163845.80, 187500.00, 187500.00, 187500.00, -167738.58, -167643.36, -167806.16, -167741.19, 0.022, 0.362, 0.924, 22:15:15.510, 1541906115510
119, -162654.64, 187500.00, 187500.00, 187500.00, -167731.27, -167636.16, -167798.98, -167732.30, 0.000, 0.000, 0.000, 22:15:15.510, 1541906115510
120, -165590.86, 187500.00, 187500.00, 187500.00, -167757.30, -167661.84, -167824.78, -167762.05, 0.000, 0.000, 0.000, 22:15:15.958, 1541906115958
121, -167168.20, 187500.00, 187500.00, 187500.00, -167777.98, -167682.30, -167844.98, -167784.08, 0.000, 0.000, 0.000, 22:15:15.958, 1541906115958
122, -165405.00, 187500.00, 187500.00, 187500.00, -167771.06, -167675.52, -167838.55, -167777.06, 0.000, 0.000, 0.000, 22:15:15.958, 1541906115958
123, -163471.02, 187500.00, 187500.00, 187500.00, -167759.89, -167664.55, -167827.64, -167765.02, 0.000, 0.000, 0.000, 22:15:15.958, 1541906115958
124, -166042.75, 187500.00, 187500.00, 187500.00, -167781.27, -167685.50, -167848.66, -167787.50, 0.000, 0.000, 0.000, 22:15:15.959, 1541906115959
125, -167517.94, 187500.00, 187500.00, 187500.00, -167804.39, -167708.33, -167871.30, -167811.19, 0.000, 0.000, 0.000, 22:15:15.959, 1541906115959
126, -166764.97, 187500.00, 187500.00, 187500.00, -167802.45, -167706.52, -167869.63, -167809.42, 0.000, 0.000, 0.000, 22:15:15.959, 1541906115959
127, -164471.55, 187500.00, 187500.00, 187500.00, -167786.19, -167690.31, -167853.75, -167792.81, 0.000, 0.000, 0.000, 22:15:15.959, 1541906115959
128, -166210.73, 187500.00, 187500.00, 187500.00, -167804.80, -167708.84, -167872.03, -167811.81, 0.022, 0.368, 0.916, 22:15:15.959, 1541906115959
129, -167582.63, 187500.00, 187500.00, 187500.00, -167828.36, -167732.20, -167895.17, -167835.75, 0.000, 0.000, 0.000, 22:15:15.959, 1541906115959
130, -167273.45, 187500.00, 187500.00, 187500.00, -167829.13, -167732.84, -167895.91, -167836.58, 0.000, 0.000, 0.000, 22:15:15.960, 1541906115960
131, -165165.28, 187500.00, 187500.00, 187500.00, -167811.48, -167715.42, -167878.89, -167818.84, 0.000, 0.000, 0.000, 22:15:15.960, 1541906115960
132, -166117.98, 187500.00, 187500.00, 187500.00, -167821.23, -167725.09, -167888.48, -167828.64, 0.000, 0.000, 0.000, 22:15:15.964, 1541906115964
133, -167583.25, 187500.00, 187500.00, 187500.00, -167847.63, -167751.28, -167914.48, -167855.38, 0.000, 0.000, 0.000, 22:15:15.966, 1541906115966
134, -167538.67, 187500.00, 187500.00, 187500.00, -167853.45, -167757.22, -167920.36, -167861.34, 0.000, 0.000, 0.000, 22:15:15.967, 1541906115967
135, -165965.50, 187500.00, 187500.00, 187500.00, -167836.30, -167740.03, -167903.53, -167844.16, 0.000, 0.000, 0.000, 22:15:15.967, 1541906115967
136, -166155.11, 187500.00, 187500.00, 187500.00, -167839.52, -167743.28, -167906.80, -167847.48, 0.000, 0.000, 0.000, 22:15:15.968, 1541906115968
137, -167576.34, 187500.00, 187500.00, 187500.00, -167863.72, -167767.25, -167930.53, -167871.72, 0.000, 0.000, 0.000, 22:15:15.969, 1541906115969
138, -167656.11, 187500.00, 187500.00, 187500.00, -167876.22, -167779.72, -167943.00, -167884.33, 0.000, 0.000, 0.000, 22:15:15.970, 1541906115970
139, -166666.69, 187500.00, 187500.00, 187500.00, -167863.97, -167767.66, -167931.16, -167872.23, 0.020, 0.366, 0.918, 22:15:15.971, 1541906115971
140, -166307.17, 187500.00, 187500.00, 187500.00, -167859.47, -167763.19, -167926.81, -167867.67, 0.000, 0.000, 0.000, 22:15:15.971, 1541906115971
141, -167569.88, 187500.00, 187500.00, 187500.00, -167884.86, -167788.42, -167951.72, -167893.11, 0.000, 0.000, 0.000, 22:15:15.971, 1541906115971
142, -167703.81, 187500.00, 187500.00, 187500.00, -167899.61, -167803.06, -167966.41, -167908.05, 0.000, 0.000, 0.000, 22:15:15.971, 1541906115971
143, -167146.98, 187500.00, 187500.00, 187500.00, -167888.44, -167791.98, -167955.52, -167897.00, 0.000, 0.000, 0.000, 22:15:15.971, 1541906115971
144, -166460.30, 187500.00, 187500.00, 187500.00, -167879.59, -167783.13, -167946.83, -167888.11, 0.000, 0.000, 0.000, 22:15:15.971, 1541906115971
145, -167540.53, 187500.00, 187500.00, 187500.00, -167903.91, -167807.33, -167970.69, -167912.42, 0.000, 0.000, 0.000, 22:15:15.971, 1541906115971
146, -167730.75, 187500.00, 187500.00, 187500.00, -167923.59, -167826.91, -167990.39, -167932.30, 0.000, 0.000, 0.000, 22:15:15.972, 1541906115972
147, -167503.00, 187500.00, 187500.00, 187500.00, -167916.95, -167820.38, -167983.88, -167925.67, 0.000, 0.000, 0.000, 22:15:15.972, 1541906115972
148, -166858.05, 187500.00, 187500.00, 187500.00, -167904.67, -167808.16, -167971.88, -167913.42, 0.000, 0.000, 0.000, 22:15:15.972, 1541906115972
149, -167559.89, 187500.00, 187500.00, 187500.00, -167926.77, -167830.06, -167993.58, -167935.47, 0.018, 0.368, 0.920, 22:15:15.972, 1541906115972
150, -167754.70, 187500.00, 187500.00, 187500.00, -167946.89, -167850.06, -168013.61, -167955.63, 0.000, 0.000, 0.000, 22:15:15.972, 1541906115972
151, -167702.92, 187500.00, 187500.00, 187500.00, -167946.38, -167849.50, -168013.13, -167955.06, 0.000, 0.000, 0.000, 22:15:15.972, 1541906115972
152, -167346.67, 187500.00, 187500.00, 187500.00, -167932.94, -167836.27, -167999.97, -167941.80, 0.000, 0.000, 0.000, 22:15:15.972, 1541906115972
153, -167630.81, 187500.00, 187500.00, 187500.00, -167948.88, -167852.14, -168015.70, -167957.69, 0.000, 0.000, 0.000, 22:15:15.972, 1541906115972
154, -167779.39, 187500.00, 187500.00, 187500.00, -167971.39, -167874.53, -168038.16, -167980.28, 0.000, 0.000, 0.000, 22:15:15.972, 1541906115972
155, -167775.23, 187500.00, 187500.00, 187500.00, -167974.78, -167877.94, -168041.59, -167983.75, 0.000, 0.000, 0.000, 22:15:15.972, 1541906115972
156, -167634.45, 187500.00, 187500.00, 187500.00, -167958.13, -167861.30, -168025.08, -167967.08, 0.000, 0.000, 0.000, 22:15:15.973, 1541906115973
157, -167706.86, 187500.00, 187500.00, 187500.00, -167968.02, -167871.00, -168034.69, -167976.84, 0.000, 0.000, 0.000, 22:15:15.973, 1541906115973
158, -167799.59, 187500.00, 187500.00, 187500.00, -167991.69, -167894.66, -168058.31, -168000.64, 0.000, 0.000, 0.000, 22:15:15.973, 1541906115973
159, -167807.02, 187500.00, 187500.00, 187500.00, -167999.50, -167902.59, -168066.25, -168008.58, 0.022, 0.368, 0.920, 22:15:15.973, 1541906115973
160, -167761.66, 187500.00, 187500.00, 187500.00, -167984.94, -167888.02, -168051.72, -167993.92, 0.000, 0.000, 0.000, 22:15:15.973, 1541906115973
161, -167766.05, 187500.00, 187500.00, 187500.00, -167984.66, -167887.80, -168051.42, -167993.67, 0.000, 0.000, 0.000, 22:15:15.973, 1541906115973
162, -167817.58, 187500.00, 187500.00, 187500.00, -168010.22, -167913.23, -168076.97, -168019.31, 0.000, 0.000, 0.000, 22:15:15.973, 1541906115973
163, -167829.39, 187500.00, 187500.00, 187500.00, -168021.56, -167924.61, -168088.36, -168030.69, 0.000, 0.000, 0.000, 22:15:15.973, 1541906115973
164, -167796.47, 187500.00, 187500.00, 187500.00, -168008.53, -167911.63, -168075.41, -168017.70, 0.000, 0.000, 0.000, 22:15:15.973, 1541906115973
165, -167784.95, 187500.00, 187500.00, 187500.00, -168005.00, -167908.09, -168071.86, -168014.19, 0.000, 0.000, 0.000, 22:15:15.973, 1541906115973
166, -167834.34, 187500.00, 187500.00, 187500.00, -168028.05, -167931.09, -168094.88, -168037.30, 0.000, 0.000, 0.000, 22:15:15.973, 1541906115973
167, -167850.27, 187500.00, 187500.00, 187500.00, -168042.23, -167945.08, -168108.94, -168051.42, 0.000, 0.000, 0.000, 22:15:15.974, 1541906115974
168, -167831.84, 187500.00, 187500.00, 187500.00, -168032.05, -167934.94, -168098.80, -168041.22, 0.000, 0.000, 0.000, 22:15:15.974, 1541906115974
169, -167811.03, 187500.00, 187500.00, 187500.00, -168019.95, -167923.05, -168086.70, -168029.13, 0.024, 0.368, 0.920, 22:15:15.974, 1541906115974
170, -167848.27, 187500.00, 187500.00, 187500.00, -168042.95, -167945.91, -168109.67, -168052.30, 0.000, 0.000, 0.000, 22:15:15.974, 1541906115974
171, -167868.75, 187500.00, 187500.00, 187500.00, -168060.56, -167963.47, -168127.41, -168070.00, 0.000, 0.000, 0.000, 22:15:15.974, 1541906115974
172, -167857.97, 187500.00, 187500.00, 187500.00, -168054.52, -167957.42, -168121.30, -168063.78, 0.000, 0.000, 0.000, 22:15:15.975, 1541906115975
173, -167832.34, 187500.00, 187500.00, 187500.00, -168037.89, -167940.88, -168104.77, -168047.06, 0.000, 0.000, 0.000, 22:15:15.975, 1541906115975
174, -167857.92, 187500.00, 187500.00, 187500.00, -168053.80, -167956.67, -168120.67, -168063.05, 0.000, 0.000, 0.000, 22:15:15.975, 1541906115975
175, -167880.39, 187500.00, 187500.00, 187500.00, -168072.23, -167975.16, -168139.05, -168081.58, 0.000, 0.000, 0.000, 22:15:15.975, 1541906115975
176, -167875.41, 187500.00, 187500.00, 187500.00, -168069.95, -167972.84, -168136.72, -168079.23, 0.000, 0.000, 0.000, 22:15:15.976, 1541906115976
177, -167848.11, 187500.00, 187500.00, 187500.00, -168051.11, -167954.02, -168117.95, -168060.45, 0.000, 0.000, 0.000, 22:15:15.976, 1541906115976
178, -167867.00, 187500.00, 187500.00, 187500.00, -168064.14, -167967.08, -168130.95, -168073.42, 0.000, 0.000, 0.000, 22:15:15.981, 1541906115981
179, -167891.72, 187500.00, 187500.00, 187500.00, -168084.02, -167986.78, -168150.84, -168093.30, 0.022, 0.364, 0.914, 22:15:15.981, 1541906115981
180, -167892.59, 187500.00, 187500.00, 187500.00, -168086.94, -167989.77, -168153.75, -168096.27, 0.000, 0.000, 0.000, 22:15:15.983, 1541906115983
181, -167852.97, 187500.00, 187500.00, 187500.00, -168068.08, -167970.98, -168134.84, -168077.33, 0.000, 0.000, 0.000, 22:15:15.983, 1541906115983
182, -167865.19, 187500.00, 187500.00, 187500.00, -168070.73, -167973.73, -168137.66, -168080.08, 0.000, 0.000, 0.000, 22:15:15.983, 1541906115983
183, -167901.22, 187500.00, 187500.00, 187500.00, -168094.25, -167997.14, -168161.11, -168103.69, 0.000, 0.000, 0.000, 22:15:15.984, 1541906115984
184, -167905.67, 187500.00, 187500.00, 187500.00, -168099.66, -168002.55, -168166.52, -168109.08, 0.000, 0.000, 0.000, 22:15:15.984, 1541906115984
185, -167826.59, 187500.00, 187500.00, 187500.00, -168084.17, -167987.08, -168151.09, -168093.58, 0.000, 0.000, 0.000, 22:15:15.985, 1541906115985
186, -167822.88, 187500.00, 187500.00, 187500.00, -168080.44, -167983.41, -168147.45, -168089.97, 0.000, 0.000, 0.000, 22:15:15.985, 1541906115985
187, -167910.08, 187500.00, 187500.00, 187500.00, -168104.42, -168007.34, -168171.33, -168113.95, 0.000, 0.000, 0.000, 22:15:15.986, 1541906115986
188, -167924.52, 187500.00, 187500.00, 187500.00, -168117.61, -168020.53, -168184.52, -168127.16, 0.000, 0.000, 0.000, 22:15:15.986, 1541906115986
189, -167875.55, 187500.00, 187500.00, 187500.00, -168104.63, -168007.70, -168171.64, -168114.19, 0.018, 0.366, 0.914, 22:15:15.987, 1541906115987
190, -167844.92, 187500.00, 187500.00, 187500.00, -168098.55, -168001.56, -168165.48, -168108.11, 0.000, 0.000, 0.000, 22:15:15.988, 1541906115988
191, -167925.59, 187500.00, 187500.00, 187500.00, -168122.08, -168024.86, -168188.80, -168131.58, 0.000, 0.000, 0.000, 22:15:15.988, 1541906115988
192, -167943.56, 187500.00, 187500.00, 187500.00, -168136.48, -168039.17, -168203.27, -168146.00, 0.000, 0.000, 0.000, 22:15:15.989, 1541906115989
193, -167928.06, 187500.00, 187500.00, 187500.00, -168127.41, -168030.28, -168194.39, -168136.95, 0.000, 0.000, 0.000, 22:15:15.989, 1541906115989
194, -167909.19, 187500.00, 187500.00, 187500.00, -168116.19, -168019.11, -168183.14, -168125.69, 0.000, 0.000, 0.000, 22:15:15.990, 1541906115990
195, -167941.70, 187500.00, 187500.00, 187500.00, -168137.11, -168040.00, -168203.98, -168146.64, 0.000, 0.000, 0.000, 22:15:15.990, 1541906115990
196, -167964.81, 187500.00, 187500.00, 187500.00, -168157.44, -168060.30, -168224.30, -168167.02, 0.000, 0.000, 0.000, 22:15:15.991, 1541906115991
197, -167958.02, 187500.00, 187500.00, 187500.00, -168154.11, -168056.97, -168220.97, -168163.61, 0.000, 0.000, 0.000, 22:15:15.991, 1541906115991
198, -167936.45, 187500.00, 187500.00, 187500.00, -168139.00, -168041.73, -168205.86, -168148.41, 0.000, 0.000, 0.000, 22:15:15.992, 1541906115992
199, -167959.70, 187500.00, 187500.00, 187500.00, -168155.66, -168058.36, -168222.52, -168165.25, 0.014, 0.368, 0.920, 22:15:15.994, 1541906115994
200, -167983.13, 187500.00, 187500.00, 187500.00, -168175.44, -168078.11, -168242.33, -168185.09, 0.000, 0.000, 0.000, 22:15:15.994, 1541906115994
201, -167980.44, 187500.00, 187500.00, 187500.00, -168174.61, -168077.25, -168241.44, -168184.25, 0.000, 0.000, 0.000, 22:15:15.994, 1541906115994
202, -167959.03, 187500.00, 187500.00, 187500.00, -168158.73, -168061.39, -168225.50, -168168.22, 0.000, 0.000, 0.000, 22:15:15.995, 1541906115995
203, -167973.28, 187500.00, 187500.00, 187500.00, -168169.64, -168072.34, -168236.41, -168179.13, 0.000, 0.000, 0.000, 22:15:15.995, 1541906115995
204, -168000.80, 187500.00, 187500.00, 187500.00, -168193.19, -168095.81, -168259.97, -168202.77, 0.000, 0.000, 0.000, 22:15:15.995, 1541906115995
205, -168003.73, 187500.00, 187500.00, 187500.00, -168197.05, -168099.78, -168263.88, -168206.70, 0.000, 0.000, 0.000, 22:15:15.995, 1541906115995
206, -167981.58, 187500.00, 187500.00, 187500.00, -168180.38, -168083.14, -168247.28, -168189.97, 0.000, 0.000, 0.000, 22:15:15.996, 1541906115996
207, -167987.02, 187500.00, 187500.00, 187500.00, -168184.28, -168086.91, -168251.05, -168193.77, 0.000, 0.000, 0.000, 22:15:15.997, 1541906115997
208, -168016.25, 187500.00, 187500.00, 187500.00, -168208.97, -168111.55, -168275.81, -168218.59, 0.000, 0.000, 0.000, 22:15:15.997, 1541906115997
209, -168023.11, 187500.00, 187500.00, 187500.00, -168215.95, -168118.58, -168282.86, -168225.70, 0.000, 0.000, 0.000, 22:15:15.997, 1541906115997
210, -168001.77, 187500.00, 187500.00, 187500.00, -168199.80, -168102.48, -168266.75, -168209.48, 0.016, 0.364, 0.918, 22:15:16.000, 1541906116000
211, -167997.25, 187500.00, 187500.00, 187500.00, -168195.59, -168098.20, -168262.56, -168205.28, 0.000, 0.000, 0.000, 22:15:16.002, 1541906116002
212, -168025.59, 187500.00, 187500.00, 187500.00, -168218.86, -168121.52, -168285.70, -168228.44, 0.000, 0.000, 0.000, 22:15:16.003, 1541906116003
213, -168038.52, 187500.00, 187500.00, 187500.00, -168231.11, -168133.69, -168297.92, -168240.70, 0.000, 0.000, 0.000, 22:15:16.004, 1541906116004
214, -168021.97, 187500.00, 187500.00, 187500.00, -168218.91, -168121.56, -168285.81, -168228.59, 0.000, 0.000, 0.000, 22:15:16.004, 1541906116004
215, -168013.19, 187500.00, 187500.00, 187500.00, -168212.23, -168114.91, -168279.17, -168221.92, 0.000, 0.000, 0.000, 22:15:16.005, 1541906116005
216, -168039.47, 187500.00, 187500.00, 187500.00, -168233.44, -168135.94, -168300.27, -168243.16, 0.000, 0.000, 0.000, 22:15:16.006, 1541906116006
217, -168055.56, 187500.00, 187500.00, 187500.00, -168247.86, -168150.38, -168314.75, -168257.59, 0.000, 0.000, 0.000, 22:15:16.007, 1541906116007
218, -168042.39, 187500.00, 187500.00, 187500.00, -168238.02, -168140.48, -168304.88, -168247.56, 0.000, 0.000, 0.000, 22:15:16.007, 1541906116007
219, -168024.67, 187500.00, 187500.00, 187500.00, -168223.77, -168126.28, -168290.61, -168233.23, 0.000, 0.000, 0.000, 22:15:16.007, 1541906116007
220, -168048.55, 187500.00, 187500.00, 187500.00, -168243.11, -168145.63, -168310.03, -168252.75, 0.018, 0.366, 0.916, 22:15:16.008, 1541906116008
221, -168066.98, 187500.00, 187500.00, 187500.00, -168259.28, -168161.80, -168326.20, -168268.98, 0.000, 0.000, 0.000, 22:15:16.008, 1541906116008
222, -168058.88, 187500.00, 187500.00, 187500.00, -168253.47, -168156.09, -168320.44, -168263.17, 0.000, 0.000, 0.000, 22:15:16.008, 1541906116008
223, -168035.48, 187500.00, 187500.00, 187500.00, -168234.48, -168137.17, -168301.52, -168244.09, 0.000, 0.000, 0.000, 22:15:16.008, 1541906116008
224, -168052.52, 187500.00, 187500.00, 187500.00, -168247.86, -168150.45, -168314.89, -168257.48, 0.000, 0.000, 0.000, 22:15:16.008, 1541906116008
225, -168073.17, 187500.00, 187500.00, 187500.00, -168265.58, -168168.11, -168332.53, -168275.23, 0.000, 0.000, 0.000, 22:15:16.008, 1541906116008
226, -168068.13, 187500.00, 187500.00, 187500.00, -168262.19, -168164.81, -168329.16, -168271.95, 0.000, 0.000, 0.000, 22:15:16.008, 1541906116008
227, -168043.67, 187500.00, 187500.00, 187500.00, -168242.73, -168145.47, -168309.80, -168252.45, 0.000, 0.000, 0.000, 22:15:16.008, 1541906116008
228, -168054.64, 187500.00, 187500.00, 187500.00, -168251.05, -168153.73, -168318.02, -168260.73, 0.000, 0.000, 0.000, 22:15:16.009, 1541906116009
229, -168078.66, 187500.00, 187500.00, 187500.00, -168271.28, -168173.84, -168338.17, -168281.00, 0.000, 0.000, 0.000, 22:15:16.009, 1541906116009
230, -168080.28, 187500.00, 187500.00, 187500.00, -168273.77, -168176.36, -168340.70, -168283.47, 0.022, 0.376, 0.916, 22:15:16.010, 1541906116010
231, -168055.47, 187500.00, 187500.00, 187500.00, -168254.27, -168156.89, -168321.30, -168264.03, 0.000, 0.000, 0.000, 22:15:16.010, 1541906116010
232, -168058.61, 187500.00, 187500.00, 187500.00, -168256.38, -168158.92, -168323.31, -168266.14, 0.000, 0.000, 0.000, 22:15:16.010, 1541906116010
233, -168083.14, 187500.00, 187500.00, 187500.00, -168276.38, -168179.03, -168343.30, -168286.13, 0.000, 0.000, 0.000, 22:15:16.011, 1541906116011
234, -168089.05, 187500.00, 187500.00, 187500.00, -168282.34, -168184.95, -168349.22, -168292.00, 0.000, 0.000, 0.000, 22:15:16.011, 1541906116011
235, -168068.48, 187500.00, 187500.00, 187500.00, -168266.70, -168169.41, -168333.70, -168276.53, 0.000, 0.000, 0.000, 22:15:16.011, 1541906116011
236, -168060.86, 187500.00, 187500.00, 187500.00, -168259.86, -168162.58, -168326.88, -168269.64, 0.000, 0.000, 0.000, 22:15:16.011, 1541906116011
237, -168088.48, 187500.00, 187500.00, 187500.00, -168282.45, -168185.19, -168349.44, -168292.22, 0.000, 0.000, 0.000, 22:15:16.011, 1541906116011
238, -168101.03, 187500.00, 187500.00, 187500.00, -168294.25, -168196.84, -168361.17, -168304.03, 0.000, 0.000, 0.000, 22:15:16.011, 1541906116011
239, -168082.98, 187500.00, 187500.00, 187500.00, -168280.78, -168183.38, -168347.77, -168290.56, 0.000, 0.000, 0.000, 22:15:16.011, 1541906116011
240, -168070.92, 187500.00, 187500.00, 187500.00, -168271.09, -168173.77, -168338.14, -168280.94, 0.024, 0.370, 0.920, 22:15:16.441, 1541906116441
241, -168101.58, 187500.00, 187500.00, 187500.00, -168296.20, -168198.80, -168363.17, -168306.00, 0.000, 0.000, 0.000, 22:15:16.442, 1541906116442
242, -168119.89, 187500.00, 187500.00, 187500.00, -168312.67, -168215.25, -168379.69, -168322.47, 0.000, 0.000, 0.000, 22:15:16.442, 1541906116442
243, -168109.50, 187500.00, 187500.00, 187500.00, -168305.14, -168207.73, -168372.20, -168314.94, 0.000, 0.000, 0.000, 22:15:16.442, 1541906116442
244, -168094.36, 187500.00, 187500.00, 187500.00, -168293.34, -168195.98, -168360.42, -168303.02, 0.000, 0.000, 0.000, 22:15:16.442, 1541906116442
245, -168116.20, 187500.00, 187500.00, 187500.00, -168310.98, -168213.50, -168377.97, -168320.67, 0.000, 0.000, 0.000, 22:15:16.442, 1541906116442
246, -168136.39, 187500.00, 187500.00, 187500.00, -168328.83, -168231.34, -168395.84, -168338.61, 0.000, 0.000, 0.000, 22:15:16.443, 1541906116443
247, -168133.08, 187500.00, 187500.00, 187500.00, -168327.47, -168229.97, -168394.48, -168337.27, 0.000, 0.000, 0.000, 22:15:16.443, 1541906116443
248, -168112.06, 187500.00, 187500.00, 187500.00, -168310.42, -168212.98, -168377.55, -168320.13, 0.000, 0.000, 0.000, 22:15:16.443, 1541906116443
249, -168128.83, 187500.00, 187500.00, 187500.00, -168324.14, -168226.73, -168391.16, -168333.89, 0.000, 0.000, 0.000, 22:15:16.443, 1541906116443
250, -168153.75, 187500.00, 187500.00, 187500.00, -168346.11, -168248.70, -168413.14, -168355.95, 0.024, 0.370, 0.918, 22:15:16.443, 1541906116443
251, -168153.78, 187500.00, 187500.00, 187500.00, -168347.33, -168249.89, -168414.38, -168357.11, 0.000, 0.000, 0.000, 22:15:16.443, 1541906116443
252, -168131.81, 187500.00, 187500.00, 187500.00, -168329.58, -168232.14, -168396.61, -168339.36, 0.000, 0.000, 0.000, 22:15:16.443, 1541906116443
253, -168141.58, 187500.00, 187500.00, 187500.00, -168337.42, -168239.88, -168404.34, -168347.09, 0.000, 0.000, 0.000, 22:15:16.443, 1541906116443
254, -168168.97, 187500.00, 187500.00, 187500.00, -168361.45, -168263.86, -168428.38, -168371.14, 0.000, 0.000, 0.000, 22:15:16.443, 1541906116443
255, -168173.05, 187500.00, 187500.00, 187500.00, -168365.98, -168268.48, -168432.92, -168375.73, 0.000, 0.000, 0.000, 22:15:16.444, 1541906116444
0, -168152.09, 187500.00, 187500.00, 187500.00, -168349.00, -168251.50, -168416.05, -168358.72, 0.000, 0.000, 0.000, 22:15:16.445, 1541906116445
1, -168153.94, 187500.00, 187500.00, 187500.00, -168350.34, -168252.86, -168417.34, -168360.06, 0.000, 0.000, 0.000, 22:15:16.447, 1541906116447
2, -168183.59, 187500.00, 187500.00, 187500.00, -168376.31, -168278.80, -168443.25, -168386.09, 0.000, 0.000, 0.000, 22:15:16.447, 1541906116447
3, -168193.78, 187500.00, 187500.00, 187500.00, -168386.13, -168288.64, -168453.11, -168395.98, 0.000, 0.000, 0.000, 22:15:16.450, 1541906116450
4, -168173.05, 187500.00, 187500.00, 187500.00, -168368.80, -168271.44, -168435.92, -168378.69, 0.026, 0.366, 0.916, 22:15:16.451, 1541906116451
5, -168170.36, 187500.00, 187500.00, 187500.00, -168366.98, -168269.42, -168434.00, -168376.78, 0.000, 0.000, 0.000, 22:15:16.452, 1541906116452
6, -168200.33, 187500.00, 187500.00, 187500.00, -168393.33, -168295.64, -168460.27, -168403.06, 0.000, 0.000, 0.000, 22:15:16.452, 1541906116452
7, -168215.02, 187500.00, 187500.00, 187500.00, -168407.30, -168309.69, -168474.23, -168417.06, 0.000, 0.000, 0.000, 22:15:16.452, 1541906116452
8, -168199.22, 187500.00, 187500.00, 187500.00, -168394.44, -168296.94, -168461.45, -168404.31, 0.000, 0.000, 0.000, 22:15:16.452, 1541906116452
9, -168186.23, 187500.00, 187500.00, 187500.00, -168383.19, -168285.66, -168450.34, -168393.09, 0.000, 0.000, 0.000, 22:15:16.452, 1541906116452
10, -168210.97, 187500.00, 187500.00, 187500.00, -168404.23, -168306.69, -168471.39, -168414.33, 0.000, 0.000, 0.000, 22:15:16.452, 1541906116452
11, -168226.52, 187500.00, 187500.00, 187500.00, -168418.42, -168320.88, -168485.52, -168428.56, 0.000, 0.000, 0.000, 22:15:16.452, 1541906116452
12, -168217.30, 187500.00, 187500.00, 187500.00, -168411.72, -168314.08, -168478.86, -168421.80, 0.000, 0.000, 0.000, 22:15:16.452, 1541906116452
13, -168198.02, 187500.00, 187500.00, 187500.00, -168395.53, -168297.92, -168462.67, -168405.44, 0.000, 0.000, 0.000, 22:15:16.452, 1541906116452
14, -168214.80, 187500.00, 187500.00, 187500.00, -168409.30, -168311.73, -168476.48, -168419.27, 0.024, 0.372, 0.922, 22:15:16.452, 1541906116452
15, -168233.06, 187500.00, 187500.00, 187500.00, -168425.69, -168328.08, -168492.81, -168435.59, 0.000, 0.000, 0.000, 22:15:16.453, 1541906116453
16, -168224.86, 187500.00, 187500.00, 187500.00, -168419.66, -168322.02, -168486.80, -168429.63, 0.000, 0.000, 0.000, 22:15:16.453, 1541906116453
17, -168201.45, 187500.00, 187500.00, 187500.00, -168400.73, -168303.17, -168467.94, -168410.64, 0.000, 0.000, 0.000, 22:15:16.453, 1541906116453
18, -168216.77, 187500.00, 187500.00, 187500.00, -168413.28, -168315.77, -168480.50, -168423.34, 0.000, 0.000, 0.000, 22:15:16.453, 1541906116453
19, -168240.48, 187500.00, 187500.00, 187500.00, -168434.06, -168336.53, -168501.28, -168444.22, 0.000, 0.000, 0.000, 22:15:16.453, 1541906116453
20, -168241.39, 187500.00, 187500.00, 187500.00, -168436.38, -168338.89, -168503.63, -168446.56, 0.000, 0.000, 0.000, 22:15:16.453, 1541906116453
21, -168219.42, 187500.00, 187500.00, 187500.00, -168419.53, -168322.13, -168486.86, -168429.69, 0.000, 0.000, 0.000, 22:15:16.453, 1541906116453
22, -168228.31, 187500.00, 187500.00, 187500.00, -168426.42, -168328.98, -168493.69, -168436.53, 0.000, 0.000, 0.000, 22:15:16.453, 1541906116453
23, -168252.97, 187500.00, 187500.00, 187500.00, -168447.19, -168349.59, -168514.36, -168457.25, 0.000, 0.000, 0.000, 22:15:16.453, 1541906116453
24, -168258.86, 187500.00, 187500.00, 187500.00, -168453.47, -168355.91, -168520.59, -168463.53, 0.020, 0.374, 0.920, 22:15:16.453, 1541906116453
25, -168236.59, 187500.00, 187500.00, 187500.00, -168435.83, -168338.27, -168503.06, -168445.89, 0.000, 0.000, 0.000, 22:15:16.453, 1541906116453
26, -168238.47, 187500.00, 187500.00, 187500.00, -168437.38, -168339.83, -168504.56, -168447.53, 0.000, 0.000, 0.000, 22:15:16.454, 1541906116454
27, -168266.55, 187500.00, 187500.00, 187500.00, -168460.95, -168363.41, -168528.17, -168471.03, 0.000, 0.000, 0.000, 22:15:16.454, 1541906116454
28, -168277.31, 187500.00, 187500.00, 187500.00, -168471.39, -168373.77, -168538.56, -168481.52, 0.000, 0.000, 0.000, 22:15:16.454, 1541906116454
29, -168260.00, 187500.00, 187500.00, 187500.00, -168458.09, -168360.53, -168525.36, -168468.20, 0.000, 0.000, 0.000, 22:15:16.454, 1541906116454
30, -168251.59, 187500.00, 187500.00, 187500.00, -168450.92, -168353.33, -168518.22, -168461.00, 0.000, 0.000, 0.000, 22:15:16.454, 1541906116454
31, -168279.39, 187500.00, 187500.00, 187500.00, -168474.28, -168376.63, -168541.52, -168484.42, 0.000, 0.000, 0.000, 22:15:16.454, 1541906116454
32, -168294.09, 187500.00, 187500.00, 187500.00, -168487.98, -168390.34, -168555.30, -168498.00, 0.000, 0.000, 0.000, 22:15:16.454, 1541906116454
33, -168278.88, 187500.00, 187500.00, 187500.00, -168476.30, -168378.61, -168543.56, -168486.38, 0.000, 0.000, 0.000, 22:15:16.454, 1541906116454
34, -168265.56, 187500.00, 187500.00, 187500.00, -168465.58, -168367.89, -168532.81, -168475.64, 0.000, 0.000, 0.000, 22:15:16.454, 1541906116454
35, -168290.39, 187500.00, 187500.00, 187500.00, -168486.03, -168388.36, -168553.20, -168496.14, 0.020, 0.370, 0.914, 22:15:16.454, 1541906116454
36, -168309.19, 187500.00, 187500.00, 187500.00, -168502.91, -168405.28, -168570.17, -168513.03, 0.000, 0.000, 0.000, 22:15:16.454, 1541906116454
37, -168298.44, 187500.00, 187500.00, 187500.00, -168494.63, -168397.03, -168561.92, -168504.78, 0.000, 0.000, 0.000, 22:15:16.454, 1541906116454
38, -168279.80, 187500.00, 187500.00, 187500.00, -168479.70, -168382.09, -168546.94, -168489.80, 0.000, 0.000, 0.000, 22:15:16.455, 1541906116455
39, -168301.13, 187500.00, 187500.00, 187500.00, -168497.41, -168399.78, -168564.63, -168507.47, 0.000, 0.000, 0.000, 22:15:16.455, 1541906116455
40, -168323.69, 187500.00, 187500.00, 187500.00, -168517.42, -168419.73, -168584.47, -168527.41, 0.000, 0.000, 0.000, 22:15:16.455, 1541906116455
41, -168318.33, 187500.00, 187500.00, 187500.00, -168513.70, -168416.00, -168580.81, -168523.77, 0.000, 0.000, 0.000, 22:15:16.455, 1541906116455
42, -168295.11, 187500.00, 187500.00, 187500.00, -168494.53, -168396.86, -168561.70, -168504.70, 0.000, 0.000, 0.000, 22:15:16.455, 1541906116455
43, -168309.66, 187500.00, 187500.00, 187500.00, -168506.59, -168408.86, -168573.72, -168516.66, 0.000, 0.000, 0.000, 22:15:16.455, 1541906116455
44, -168334.64, 187500.00, 187500.00, 187500.00, -168528.55, -168430.73, -168595.58, -168538.50, 0.000, 0.000, 0.000, 22:15:16.455, 1541906116455
45, -168334.00, 187500.00, 187500.00, 187500.00, -168528.84, -168431.05, -168595.89, -168538.78, 0.018, 0.370, 0.916, 22:15:16.455, 1541906116455
46, -168313.03, 187500.00, 187500.00, 187500.00, -168512.19, -168414.47, -168579.36, -168522.33, 0.000, 0.000, 0.000, 22:15:16.455, 1541906116455
47, -168319.41, 187500.00, 187500.00, 187500.00, -168517.23, -168419.53, -168584.39, -168527.25, 0.000, 0.000, 0.000, 22:15:16.455, 1541906116455
48, -168346.00, 187500.00, 187500.00, 187500.00, -168540.19, -168442.50, -168607.27, -168550.31, 0.000, 0.000, 0.000, 22:15:16.455, 1541906116455
49, -168350.73, 187500.00, 187500.00, 187500.00, -168545.14, -168447.41, -168612.14, -168555.28, 0.000, 0.000, 0.000, 22:15:16.455, 1541906116455
50, -168329.16, 187500.00, 187500.00, 187500.00, -168527.81, -168430.05, -168594.84, -168537.83, 0.000, 0.000, 0.000, 22:15:16.456, 1541906116456
51, -168326.95, 187500.00, 187500.00, 187500.00, -168525.63, -168427.91, -168592.70, -168535.66, 0.000, 0.000, 0.000, 22:15:16.456, 1541906116456
52, -168355.05, 187500.00, 187500.00, 187500.00, -168549.73, -168451.92, -168616.80, -168559.75, 0.000, 0.000, 0.000, 22:15:16.456, 1541906116456
53, -168364.64, 187500.00, 187500.00, 187500.00, -168558.86, -168460.91, -168625.88, -168568.84, 0.000, 0.000, 0.000, 22:15:16.456, 1541906116456
54, -168346.52, 187500.00, 187500.00, 187500.00, -168544.38, -168446.55, -168611.41, -168554.36, 0.000, 0.000, 0.000, 22:15:16.456, 1541906116456
55, -168338.27, 187500.00, 187500.00, 187500.00, -168537.63, -168439.75, -168604.67, -168547.55, 0.018, 0.372, 0.914, 22:15:16.456, 1541906116456
56, -168362.34, 187500.00, 187500.00, 187500.00, -168557.47, -168459.64, -168624.58, -168567.48, 0.000, 0.000, 0.000, 22:15:16.456, 1541906116456
57, -168378.50, 187500.00, 187500.00, 187500.00, -168572.31, -168474.53, -168639.45, -168582.45, 0.000, 0.000, 0.000, 22:15:16.456, 1541906116456
58, -168366.39, 187500.00, 187500.00, 187500.00, -168563.27, -168465.50, -168630.50, -168573.45, 0.000, 0.000, 0.000, 22:15:16.456, 1541906116456
59, -168351.81, 187500.00, 187500.00, 187500.00, -168551.30, -168453.67, -168618.52, -168561.52, 0.000, 0.000, 0.000, 22:15:16.456, 1541906116456
60, -168375.19, 187500.00, 187500.00, 187500.00, -168570.97, -168473.19, -168638.11, -168581.08, 0.000, 0.000, 0.000, 22:15:16.456, 1541906116456
61, -168396.66, 187500.00, 187500.00, 187500.00, -168590.44, -168492.66, -168657.66, -168600.55, 0.000, 0.000, 0.000, 22:15:16.456, 1541906116456
62, -168390.08, 187500.00, 187500.00, 187500.00, -168586.08, -168488.25, -168653.19, -168596.08, 0.000, 0.000, 0.000, 22:15:16.457, 1541906116457
63, -168370.83, 187500.00, 187500.00, 187500.00, -168570.13, -168472.42, -168637.33, -168580.16, 0.000, 0.000, 0.000, 22:15:16.457, 1541906116457
64, -168388.67, 187500.00, 187500.00, 187500.00, -168584.72, -168487.05, -168652.00, -168594.83, 0.000, 0.000, 0.000, 22:15:16.457, 1541906116457
65, -168413.03, 187500.00, 187500.00, 187500.00, -168606.73, -168508.98, -168673.88, -168616.81, 0.018, 0.370, 0.916, 22:15:16.457, 1541906116457
66, -168411.20, 187500.00, 187500.00, 187500.00, -168606.47, -168508.70, -168673.61, -168616.55, 0.000, 0.000, 0.000, 22:15:16.457, 1541906116457
67, -168390.13, 187500.00, 187500.00, 187500.00, -168589.50, -168491.78, -168656.69, -168599.69, 0.000, 0.000, 0.000, 22:15:16.457, 1541906116457
68, -168404.31, 187500.00, 187500.00, 187500.00, -168601.48, -168503.69, -168668.73, -168611.73, 0.000, 0.000, 0.000, 22:15:16.457, 1541906116457
69, -168428.84, 187500.00, 187500.00, 187500.00, -168622.94, -168525.02, -168690.00, -168633.11, 0.000, 0.000, 0.000, 22:15:16.457, 1541906116457
70, -168430.25, 187500.00, 187500.00, 187500.00, -168625.11, -168527.16, -168692.16, -168635.28, 0.000, 0.000, 0.000, 22:15:16.457, 1541906116457
71, -168410.48, 187500.00, 187500.00, 187500.00, -168609.27, -168511.47, -168676.45, -168619.50, 0.000, 0.000, 0.000, 22:15:16.459, 1541906116459
72, -168413.11, 187500.00, 187500.00, 187500.00, -168610.94, -168513.28, -168678.03, -168621.16, 0.000, 0.000, 0.000, 22:15:16.459, 1541906116459
73, -168440.66, 187500.00, 187500.00, 187500.00, -168635.08, -168537.28, -168702.25, -168645.30, 0.000, 0.000, 0.000, 22:15:16.459, 1541906116459
74, -168447.45, 187500.00, 187500.00, 187500.00, -168641.92, -168544.03, -168709.13, -168652.16, 0.000, 0.000, 0.000, 22:15:16.459, 1541906116459
75, -168425.64, 187500.00, 187500.00, 187500.00, -168623.72, -168525.94, -168690.89, -168633.98, 0.020, 0.374, 0.910, 22:15:16.459, 1541906116459
76, -168423.52, 187500.00, 187500.00, 187500.00, -168621.98, -168524.23, -168689.13, -168632.11, 0.000, 0.000, 0.000, 22:15:16.460, 1541906116460
77, -168448.64, 187500.00, 187500.00, 187500.00, -168643.44, -168545.69, -168710.56, -168653.61, 0.000, 0.000, 0.000, 22:15:16.460, 1541906116460
78, -168459.66, 187500.00, 187500.00, 187500.00, -168653.86, -168556.00, -168721.00, -168664.06, 0.000, 0.000, 0.000, 22:15:16.460, 1541906116460
79, -168443.61, 187500.00, 187500.00, 187500.00, -168641.14, -168543.33, -168708.23, -168651.27, 0.000, 0.000, 0.000, 22:15:16.460, 1541906116460
80, -168433.28, 187500.00, 187500.00, 187500.00, -168632.39, -168534.66, -168699.55, -168642.55, 0.000, 0.000, 0.000, 22:15:16.460, 1541906116460
81, -168458.14, 187500.00, 187500.00, 187500.00, -168653.50, -168555.75, -168720.75, -168663.59, 0.000, 0.000, 0.000, 22:15:16.460, 1541906116460
82, -168473.25, 187500.00, 187500.00, 187500.00, -168667.33, -168569.56, -168734.47, -168677.48, 0.000, 0.000, 0.000, 22:15:16.460, 1541906116460
83, -168461.58, 187500.00, 187500.00, 187500.00, -168658.23, -168560.56, -168725.38, -168668.53, 0.000, 0.000, 0.000, 22:15:16.460, 1541906116460
84, -168446.61, 187500.00, 187500.00, 187500.00, -168645.81, -168548.23, -168713.11, -168656.17, 0.000, 0.000, 0.000, 22:15:16.461, 1541906116461
85, -168469.36, 187500.00, 187500.00, 187500.00, -168665.19, -168567.48, -168732.47, -168675.52, 0.018, 0.376, 0.908, 22:15:16.461, 1541906116461
86, -168488.92, 187500.00, 187500.00, 187500.00, -168682.89, -168585.23, -168750.17, -168693.19, 0.000, 0.000, 0.000, 22:15:16.461, 1541906116461
87, -168481.66, 187500.00, 187500.00, 187500.00, -168677.67, -168580.00, -168744.95, -168688.00, 0.000, 0.000, 0.000, 22:15:16.461, 1541906116461
88, -168461.88, 187500.00, 187500.00, 187500.00, -168661.30, -168563.58, -168728.48, -168671.72, 0.000, 0.000, 0.000, 22:15:16.461, 1541906116461
89, -168481.94, 187500.00, 187500.00, 187500.00, -168678.70, -168580.97, -168745.88, -168689.08, 0.000, 0.000, 0.000, 22:15:16.461, 1541906116461
90, -168504.59, 187500.00, 187500.00, 187500.00, -168698.80, -168601.08, -168766.06, -168709.08, 0.000, 0.000, 0.000, 22:15:16.462, 1541906116462
91, -168501.80, 187500.00, 187500.00, 187500.00, -168697.23, -168599.58, -168764.66, -168707.52, 0.000, 0.000, 0.000, 22:15:16.462, 1541906116462
92, -168481.00, 187500.00, 187500.00, 187500.00, -168680.20, -168582.59, -168747.63, -168690.48, 0.000, 0.000, 0.000, 22:15:16.462, 1541906116462
93, -168493.09, 187500.00, 187500.00, 187500.00, -168690.47, -168592.88, -168757.81, -168700.72, 0.000, 0.000, 0.000, 22:15:16.462, 1541906116462
94, -168517.19, 187500.00, 187500.00, 187500.00, -168711.61, -168613.94, -168778.89, -168721.89, 0.000, 0.000, 0.000, 22:15:16.462, 1541906116462
95, -168518.98, 187500.00, 187500.00, 187500.00, -168714.00, -168616.28, -168781.28, -168724.31, 0.020, 0.378, 0.914, 22:15:16.462, 1541906116462
96, -168498.42, 187500.00, 187500.00, 187500.00, -168697.27, -168599.58, -168764.50, -168707.52, 0.000, 0.000, 0.000, 22:15:16.462, 1541906116462
97, -168501.39, 187500.00, 187500.00, 187500.00, -168699.52, -168601.80, -168766.75, -168709.75, 0.000, 0.000, 0.000, 22:15:16.462, 1541906116462
98, -168527.83, 187500.00, 187500.00, 187500.00, -168722.56, -168624.84, -168789.77, -168732.78, 0.000, 0.000, 0.000, 22:15:16.462, 1541906116462
99, -168534.63, 187500.00, 187500.00, 187500.00, -168729.33, -168631.61, -168796.50, -168739.55, 0.000, 0.000, 0.000, 22:15:16.462, 1541906116462
100, -168515.55, 187500.00, 187500.00, 187500.00, -168713.89, -168616.09, -168781.08, -168724.16, 0.000, 0.000, 0.000, 22:15:16.463, 1541906116463
101, -168510.42, 187500.00, 187500.00, 187500.00, -168709.38, -168611.63, -168776.56, -168719.59, 0.000, 0.000, 0.000, 22:15:16.463, 1541906116463
102, -168536.81, 187500.00, 187500.00, 187500.00, -168732.11, -168634.31, -168799.36, -168742.34, 0.000, 0.000, 0.000, 22:15:16.463, 1541906116463
103, -168550.31, 187500.00, 187500.00, 187500.00, -168744.88, -168647.17, -168812.14, -168755.19, 0.000, 0.000, 0.000, 22:15:16.464, 1541906116464
104, -168533.78, 187500.00, 187500.00, 187500.00, -168731.59, -168633.94, -168798.89, -168741.83, 0.000, 0.000, 0.000, 22:15:16.918, 1541906116918
105, -168520.28, 187500.00, 187500.00, 187500.00, -168719.95, -168622.31, -168787.16, -168730.23, 0.000, 0.000, 0.000, 22:15:16.918, 1541906116918
106, -168546.20, 187500.00, 187500.00, 187500.00, -168742.19, -168644.44, -168809.38, -168752.56, 0.022, 0.382, 0.918, 22:15:16.919, 1541906116919
107, -168564.05, 187500.00, 187500.00, 187500.00, -168758.70, -168660.95, -168825.95, -168768.94, 0.000, 0.000, 0.000, 22:15:16.919, 1541906116919
108, -168551.70, 187500.00, 187500.00, 187500.00, -168748.95, -168651.27, -168816.23, -168759.17, 0.000, 0.000, 0.000, 22:15:16.919, 1541906116919
109, -168533.08, 187500.00, 187500.00, 187500.00, -168733.17, -168635.48, -168800.39, -168743.42, 0.000, 0.000, 0.000, 22:15:16.919, 1541906116919
110, -168555.38, 187500.00, 187500.00, 187500.00, -168752.06, -168654.34, -168819.23, -168762.34, 0.000, 0.000, 0.000, 22:15:16.919, 1541906116919
111, -168573.61, 187500.00, 187500.00, 187500.00, -168768.27, -168670.55, -168835.55, -168778.52, 0.000, 0.000, 0.000, 22:15:16.919, 1541906116919
112, -168568.17, 187500.00, 187500.00, 187500.00, -168764.77, -168667.08, -168832.06, -168775.02, 0.000, 0.000, 0.000, 22:15:16.919, 1541906116919
113, -168549.30, 187500.00, 187500.00, 187500.00, -168749.50, -168651.84, -168816.84, -168759.75, 0.000, 0.000, 0.000, 22:15:16.919, 1541906116919
114, -168563.50, 187500.00, 187500.00, 187500.00, -168761.14, -168663.38, -168828.39, -168771.25, 0.000, 0.000, 0.000, 22:15:16.920, 1541906116920
115, -168589.09, 187500.00, 187500.00, 187500.00, -168784.14, -168686.33, -168851.33, -168794.36, 0.000, 0.000, 0.000, 22:15:16.920, 1541906116920
116, -168589.72, 187500.00, 187500.00, 187500.00, -168785.86, -168688.19, -168853.14, -168796.25, 0.018, 0.374, 0.916, 22:15:16.920, 1541906116920
117, -168567.02, 187500.00, 187500.00, 187500.00, -168767.16, -168669.44, -168834.48, -168777.53, 0.000, 0.000, 0.000, 22:15:16.920, 1541906116920
118, -168575.63, 187500.00, 187500.00, 187500.00, -168774.08, -168676.34, -168841.30, -168784.44, 0.000, 0.000, 0.000, 22:15:16.920, 1541906116920
119, -168601.45, 187500.00, 187500.00, 187500.00, -168796.77, -168699.05, -168863.94, -168807.13, 0.000, 0.000, 0.000, 22:15:16.920, 1541906116920
120, -168604.83, 187500.00, 187500.00, 187500.00, -168800.64, -168702.84, -168867.89, -168810.94, 0.000, 0.000, 0.000, 22:15:16.920, 1541906116920
121, -168582.69, 187500.00, 187500.00, 187500.00, -168782.39, -168684.75, -168849.67, -168792.75, 0.000, 0.000, 0.000, 22:15:16.920, 1541906116920
122, -168583.31, 187500.00, 187500.00, 187500.00, -168782.59, -168684.92, -168849.72, -168792.88, 0.000, 0.000, 0.000, 22:15:16.920, 1541906116920
123, -168609.02, 187500.00, 187500.00, 187500.00, -168804.86, -168707.14, -168871.94, -168815.09, 0.000, 0.000, 0.000, 22:15:16.920, 1541906116920
124, -168617.69, 187500.00, 187500.00, 187500.00, -168813.33, -168715.55, -168880.44, -168823.53, 0.000, 0.000, 0.000, 22:15:16.920, 1541906116920
125, -168599.63, 187500.00, 187500.00, 187500.00, -168798.80, -168701.13, -168866.08, -168809.11, 0.000, 0.000, 0.000, 22:15:16.921, 1541906116921
126, -168595.94, 187500.00, 187500.00, 187500.00, -168795.97, -168698.28, -168863.27, -168806.30, 0.024, 0.374, 0.912, 22:15:16.921, 1541906116921
127, -168620.97, 187500.00, 187500.00, 187500.00, -168817.16, -168719.44, -168884.34, -168827.34, 0.000, 0.000, 0.000, 22:15:16.921, 1541906116921
128, -168633.05, 187500.00, 187500.00, 187500.00, -168828.27, -168730.55, -168895.41, -168838.52, 0.000, 0.000, 0.000, 22:15:16.921, 1541906116921
129, -168619.81, 187500.00, 187500.00, 187500.00, -168818.00, -168720.23, -168885.22, -168828.39, 0.000, 0.000, 0.000, 22:15:16.922, 1541906116922
130, -168609.31, 187500.00, 187500.00, 187500.00, -168809.48, -168711.72, -168876.70, -168819.84, 0.000, 0.000, 0.000, 22:15:16.922, 1541906116922
131, -168634.00, 187500.00, 187500.00, 187500.00, -168830.61, -168732.83, -168897.83, -168840.92, 0.000, 0.000, 0.000, 22:15:16.922, 1541906116922
132, -168650.36, 187500.00, 187500.00, 187500.00, -168845.61, -168747.84, -168912.81, -168855.84, 0.000, 0.000, 0.000, 22:15:16.923, 1541906116923
133, -168639.30, 187500.00, 187500.00, 187500.00, -168837.06, -168739.28, -168904.28, -168847.33, 0.000, 0.000, 0.000, 22:15:16.923, 1541906116923
134, -168620.89, 187500.00, 187500.00, 187500.00, -168821.53, -168723.80, -168888.80, -168831.81, 0.000, 0.000, 0.000, 22:15:16.923, 1541906116923
135, -168641.25, 187500.00, 187500.00, 187500.00, -168838.77, -168740.95, -168905.89, -168848.94, 0.000, 0.000, 0.000, 22:15:16.923, 1541906116923
136, -168662.08, 187500.00, 187500.00, 187500.00, -168857.48, -168759.69, -168924.73, -168867.72, 0.024, 0.370, 0.910, 22:15:16.923, 1541906116923
137, -168656.11, 187500.00, 187500.00, 187500.00, -168853.16, -168755.38, -168920.38, -168863.33, 0.000, 0.000, 0.000, 22:15:16.923, 1541906116923
138, -168635.17, 187500.00, 187500.00, 187500.00, -168835.66, -168737.94, -168902.89, -168845.81, 0.000, 0.000, 0.000, 22:15:16.923, 1541906116923
139, -168649.81, 187500.00, 187500.00, 187500.00, -168847.89, -168750.08, -168915.06, -168858.03, 0.000, 0.000, 0.000, 22:15:16.923, 1541906116923
140, -168669.95, 187500.00, 187500.00, 187500.00, -168865.39, -168767.63, -168932.56, -168875.58, 0.000, 0.000, 0.000, 22:15:16.923, 1541906116923
141, -168669.47, 187500.00, 187500.00, 187500.00, -168865.95, -168768.20, -168933.14, -168876.16, 0.000, 0.000, 0.000, 22:15:16.923, 1541906116923
142, -168645.38, 187500.00, 187500.00, 187500.00, -168845.78, -168748.05, -168913.13, -168856.09, 0.000, 0.000, 0.000, 22:15:16.924, 1541906116924
143, -168650.02, 187500.00, 187500.00, 187500.00, -168849.13, -168751.50, -168916.42, -168859.44, 0.000, 0.000, 0.000, 22:15:16.924, 1541906116924
144, -168673.05, 187500.00, 187500.00, 187500.00, -168869.02, -168771.31, -168936.17, -168879.19, 0.000, 0.000, 0.000, 22:15:16.924, 1541906116924
145, -168676.58, 187500.00, 187500.00, 187500.00, -168873.08, -168775.27, -168940.16, -168883.14, 0.000, 0.000, 0.000, 22:15:16.924, 1541906116924
146, -168653.55, 187500.00, 187500.00, 187500.00, -168854.06, -168756.30, -168921.25, -168864.25, 0.022, 0.374, 0.916, 22:15:16.924, 1541906116924
147, -168652.48, 187500.00, 187500.00, 187500.00, -168852.73, -168754.97, -168920.00, -168862.97, 0.000, 0.000, 0.000, 22:15:16.924, 1541906116924
148, -168677.81, 187500.00, 187500.00, 187500.00, -168874.27, -168776.50, -168941.45, -168884.50, 0.000, 0.000, 0.000, 22:15:16.924, 1541906116924
149, -168687.48, 187500.00, 187500.00, 187500.00, -168883.63, -168785.91, -168950.81, -168893.94, 0.000, 0.000, 0.000, 22:15:16.924, 1541906116924
150, -168670.30, 187500.00, 187500.00, 187500.00, -168870.47, -168772.81, -168937.77, -168880.75, 0.000, 0.000, 0.000, 22:15:16.924, 1541906116924
151, -168659.98, 187500.00, 187500.00, 187500.00, -168861.41, -168763.75, -168928.72, -168871.61, 0.000, 0.000, 0.000, 22:15:16.924, 1541906116924
152, -168685.84, 187500.00, 187500.00, 187500.00, -168883.00, -168785.28, -168950.22, -168893.27, 0.000, 0.000, 0.000, 22:15:16.924, 1541906116924
153, -168699.73, 187500.00, 187500.00, 187500.00, -168895.77, -168798.05, -168962.95, -168906.00, 0.000, 0.000, 0.000, 22:15:16.925, 1541906116925
154, -168687.69, 187500.00, 187500.00, 187500.00, -168886.63, -168788.95, -168953.81, -168896.91, 0.000, 0.000, 0.000, 22:15:16.925, 1541906116925
155, -168675.84, 187500.00, 187500.00, 187500.00, -168876.78, -168779.05, -168944.11, -168887.08, 0.000, 0.000, 0.000, 22:15:16.925, 1541906116925
156, -168701.97, 187500.00, 187500.00, 187500.00, -168899.09, -168801.33, -168966.36, -168909.41, 0.022, 0.378, 0.918, 22:15:16.925, 1541906116925
157, -168720.84, 187500.00, 187500.00, 187500.00, -168916.33, -168818.56, -168983.58, -168926.56, 0.000, 0.000, 0.000, 22:15:16.925, 1541906116925
158, -168714.78, 187500.00, 187500.00, 187500.00, -168912.38, -168814.61, -168979.56, -168922.61, 0.000, 0.000, 0.000, 22:15:16.925, 1541906116925
159, -168695.16, 187500.00, 187500.00, 187500.00, -168895.59, -168797.81, -168962.86, -168905.84, 0.000, 0.000, 0.000, 22:15:16.925, 1541906116925
160, -168713.64, 187500.00, 187500.00, 187500.00, -168911.02, -168813.33, -168978.20, -168921.16, 0.000, 0.000, 0.000, 22:15:16.925, 1541906116925
161, -168735.81, 187500.00, 187500.00, 187500.00, -168930.92, -168833.14, -168998.00, -168941.11, 0.000, 0.000, 0.000, 22:15:16.925, 1541906116925
162, -168733.02, 187500.00, 187500.00, 187500.00, -168929.53, -168831.81, -168996.70, -168939.78, 0.000, 0.000, 0.000, 22:15:16.926, 1541906116926
163, -168711.50, 187500.00, 187500.00, 187500.00, -168911.44, -168813.69, -168978.59, -168921.63, 0.000, 0.000, 0.000, 22:15:16.926, 1541906116926
164, -168724.89, 187500.00, 187500.00, 187500.00, -168922.83, -168825.06, -168989.95, -168933.00, 0.000, 0.000, 0.000, 22:15:16.926, 1541906116926
165, -168747.22, 187500.00, 187500.00, 187500.00, -168942.53, -168844.63, -169009.61, -168952.67, 0.000, 0.000, 0.000, 22:15:16.926, 1541906116926
166, -168745.47, 187500.00, 187500.00, 187500.00, -168941.61, -168843.64, -169008.70, -168951.78, 0.024, 0.372, 0.918, 22:15:16.926, 1541906116926
167, -168724.38, 187500.00, 187500.00, 187500.00, -168924.02, -168826.20, -168991.16, -168934.34, 0.000, 0.000, 0.000, 22:15:16.926, 1541906116926
168, -168729.94, 187500.00, 187500.00, 187500.00, -168928.59, -168830.75, -168995.70, -168938.88, 0.000, 0.000, 0.000, 22:15:16.926, 1541906116926
169, -168755.47, 187500.00, 187500.00, 187500.00, -168950.95, -168853.20, -169018.19, -168961.28, 0.000, 0.000, 0.000, 22:15:16.926, 1541906116926
170, -168761.30, 187500.00, 187500.00, 187500.00, -168957.03, -168859.28, -169024.28, -168967.42, 0.000, 0.000, 0.000, 22:15:16.926, 1541906116926
171, -168741.20, 187500.00, 187500.00, 187500.00, -168940.47, -168842.64, -169007.64, -168950.73, 0.000, 0.000, 0.000, 22:15:16.927, 1541906116927
172, -168738.59, 187500.00, 187500.00, 187500.00, -168937.89, -168840.06, -169005.02, -168948.14, 0.000, 0.000, 0.000, 22:15:16.927, 1541906116927
173, -168763.53, 187500.00, 187500.00, 187500.00, -168959.42, -168861.66, -169026.67, -168969.61, 0.000, 0.000, 0.000, 22:15:16.927, 1541906116927
174, -168774.81, 187500.00, 187500.00, 187500.00, -168970.28, -168872.44, -169037.55, -168980.52, 0.000, 0.000, 0.000, 22:15:16.927, 1541906116927
175, -168758.25, 187500.00, 187500.00, 187500.00, -168956.72, -168859.00, -169024.09, -168967.05, 0.000, 0.000, 0.000, 22:15:16.927, 1541906116927
176, -168748.05, 187500.00, 187500.00, 187500.00, -168947.83, -168850.06, -169015.22, -168958.03, 0.000, 0.000, 0.000, 22:15:16.927, 1541906116927
177, -168773.81, 187500.00, 187500.00, 187500.00, -168970.23, -168872.45, -169037.52, -168980.44, 0.024, 0.372, 0.916, 22:15:16.928, 1541906116928
178, -168788.59, 187500.00, 187500.00, 187500.00, -168983.97, -168886.20, -169051.20, -168994.20, 0.000, 0.000, 0.000, 22:15:16.928, 1541906116928
179, -168777.17, 187500.00, 187500.00, 187500.00, -168975.20, -168877.39, -169042.44, -168985.47, 0.000, 0.000, 0.000, 22:15:16.928, 1541906116928
180, -168763.47, 187500.00, 187500.00, 187500.00, -168963.64, -168865.80, -169030.84, -168973.91, 0.000, 0.000, 0.000, 22:15:16.929, 1541906116929
181, -168786.28, 187500.00, 187500.00, 187500.00, -168983.30, -168885.42, -169050.42, -168993.52, 0.000, 0.000, 0.000, 22:15:16.929, 1541906116929
182, -168805.16, 187500.00, 187500.00, 187500.00, -169000.50, -168902.72, -169067.73, -169010.75, 0.000, 0.000, 0.000, 22:15:16.930, 1541906116930
183, -168798.05, 187500.00, 187500.00, 187500.00, -168995.34, -168897.58, -169062.64, -169005.77, 0.000, 0.000, 0.000, 22:15:16.930, 1541906116930
184, -168779.45, 187500.00, 187500.00, 187500.00, -168979.61, -168881.84, -169046.91, -168989.95, 0.000, 0.000, 0.000, 22:15:16.930, 1541906116930
185, -168797.34, 187500.00, 187500.00, 187500.00, -168994.66, -168897.02, -169062.11, -169004.95, 0.000, 0.000, 0.000, 22:15:16.930, 1541906116930
186, -168818.09, 187500.00, 187500.00, 187500.00, -169013.41, -168915.64, -169080.70, -169023.69, 0.000, 0.000, 0.000, 22:15:16.931, 1541906116931
187, -168813.80, 187500.00, 187500.00, 187500.00, -169010.47, -168912.66, -169077.66, -169020.67, 0.018, 0.374, 0.920, 22:15:16.933, 1541906116933
188, -168792.64, 187500.00, 187500.00, 187500.00, -168992.34, -168894.52, -169059.63, -169002.56, 0.000, 0.000, 0.000, 22:15:16.933, 1541906116933
189, -168807.81, 187500.00, 187500.00, 187500.00, -169005.53, -168907.80, -169072.83, -169015.80, 0.000, 0.000, 0.000, 22:15:16.933, 1541906116933
190, -168832.95, 187500.00, 187500.00, 187500.00, -169028.16, -168930.33, -169095.28, -169038.39, 0.000, 0.000, 0.000, 22:15:16.934, 1541906116934
191, -168834.14, 187500.00, 187500.00, 187500.00, -169029.98, -168932.22, -169097.25, -169040.31, 0.000, 0.000, 0.000, 22:15:16.934, 1541906116934
192, -168810.78, 187500.00, 187500.00, 187500.00, -169009.89, -168912.27, -169077.23, -169020.33, 0.000, 0.000, 0.000, 22:15:16.934, 1541906116934
193, -168814.72, 187500.00, 187500.00, 187500.00, -169012.95, -168915.28, -169080.34, -169023.34, 0.000, 0.000, 0.000, 22:15:16.934, 1541906116934
194, -168839.95, 187500.00, 187500.00, 187500.00, -169035.22, -168937.58, -169102.55, -169045.56, 0.000, 0.000, 0.000, 22:15:16.934, 1541906116934
195, -168847.27, 187500.00, 187500.00, 187500.00, -169042.75, -168945.00, -169109.92, -169052.98, 0.000, 0.000, 0.000, 22:15:16.934, 1541906116934
196, -168826.66, 187500.00, 187500.00, 187500.00, -169025.11, -168927.30, -169092.42, -169035.42, 0.000, 0.000, 0.000, 22:15:16.934, 1541906116934
197, -168822.86, 187500.00, 187500.00, 187500.00, -169021.56, -168923.69, -169088.80, -169031.84, 0.024, 0.372, 0.916, 22:15:16.934, 1541906116934
198, -168849.63, 187500.00, 187500.00, 187500.00, -169045.17, -168947.33, -169112.44, -169055.48, 0.000, 0.000, 0.000, 22:15:16.934, 1541906116934
199, -168862.94, 187500.00, 187500.00, 187500.00, -169058.02, -168960.19, -169125.19, -169068.20, 0.000, 0.000, 0.000, 22:15:16.934, 1541906116934
200, -168844.98, 187500.00, 187500.00, 187500.00, -169043.00, -168945.13, -169110.20, -169053.28, 0.000, 0.000, 0.000, 22:15:16.934, 1541906116934
201, -168834.30, 187500.00, 187500.00, 187500.00, -169033.59, -168935.75, -169100.94, -169043.88, 0.000, 0.000, 0.000, 22:15:16.934, 1541906116934
202, -168857.95, 187500.00, 187500.00, 187500.00, -169054.08, -168956.25, -169121.41, -169064.34, 0.000, 0.000, 0.000, 22:15:16.935, 1541906116935
203, -168874.70, 187500.00, 187500.00, 187500.00, -169069.86, -168971.94, -169137.08, -169080.14, 0.000, 0.000, 0.000, 22:15:16.935, 1541906116935
204, -168863.31, 187500.00, 187500.00, 187500.00, -169060.72, -168962.73, -169127.91, -169071.00, 0.000, 0.000, 0.000, 22:15:16.935, 1541906116935
205, -168850.30, 187500.00, 187500.00, 187500.00, -169049.86, -168952.05, -169117.19, -169060.20, 0.000, 0.000, 0.000, 22:15:16.935, 1541906116935
206, -168873.50, 187500.00, 187500.00, 187500.00, -169070.28, -168972.41, -169137.52, -169080.48, 0.000, 0.000, 0.000, 22:15:16.935, 1541906116935
207, -168891.58, 187500.00, 187500.00, 187500.00, -169086.89, -168988.91, -169154.02, -169097.00, 0.020, 0.372, 0.914, 22:15:16.935, 1541906116935
208, -168884.83, 187500.00, 187500.00, 187500.00, -169081.84, -168984.02, -169149.13, -169092.03, 0.000, 0.000, 0.000, 22:15:16.935, 1541906116935
209, -168863.11, 187500.00, 187500.00, 187500.00, -169063.02, -168965.19, -169130.25, -169073.27, 0.000, 0.000, 0.000, 22:15:16.935, 1541906116935
210, -168879.88, 187500.00, 187500.00, 187500.00, -169077.48, -168979.72, -169144.67, -169087.67, 0.000, 0.000, 0.000, 22:15:16.935, 1541906116935
211, -168904.55, 187500.00, 187500.00, 187500.00, -169100.03, -169002.30, -169167.25, -169110.25, 0.000, 0.000, 0.000, 22:15:16.935, 1541906116935
212, -168902.42, 187500.00, 187500.00, 187500.00, -169099.23, -169001.36, -169166.52, -169109.42, 0.000, 0.000, 0.000, 22:15:16.935, 1541906116935
213, -168879.14, 187500.00, 187500.00, 187500.00, -169079.47, -168981.64, -169146.80, -169089.84, 0.000, 0.000, 0.000, 22:15:16.935, 1541906116935
214, -168890.64, 187500.00, 187500.00, 187500.00, -169089.58, -168991.72, -169156.81, -169099.88, 0.000, 0.000, 0.000, 22:15:16.935, 1541906116935
215, -168914.30, 187500.00, 187500.00, 187500.00, -169110.59, -169012.69, -169177.73, -169120.73, 0.000, 0.000, 0.000, 22:15:16.936, 1541906116936
216, -168917.09, 187500.00, 187500.00, 187500.00, -169113.98, -169016.08, -169181.17, -169124.11, 0.000, 0.000, 0.000, 22:15:16.936, 1541906116936
217, -168898.14, 187500.00, 187500.00, 187500.00, -169098.81, -169000.95, -169166.02, -169108.98, 0.018, 0.370, 0.918, 22:15:16.936, 1541906116936
218, -168900.97, 187500.00, 187500.00, 187500.00, -169101.05, -169003.25, -169168.33, -169111.22, 0.000, 0.000, 0.000, 22:15:16.936, 1541906116936
219, -168926.14, 187500.00, 187500.00, 187500.00, -169122.92, -169025.16, -169190.19, -169133.05, 0.000, 0.000, 0.000, 22:15:16.936, 1541906116936
220, -168933.11, 187500.00, 187500.00, 187500.00, -169129.77, -169031.95, -169196.94, -169139.98, 0.000, 0.000, 0.000, 22:15:16.936, 1541906116936
221, -168914.34, 187500.00, 187500.00, 187500.00, -169114.17, -169016.36, -169181.56, -169124.42, 0.000, 0.000, 0.000, 22:15:16.937, 1541906116937
222, -168910.92, 187500.00, 187500.00, 187500.00, -169111.14, -169013.36, -169178.50, -169121.39, 0.000, 0.000, 0.000, 22:15:16.937, 1541906116937
223, -168937.66, 187500.00, 187500.00, 187500.00, -169134.53, -169036.67, -169201.83, -169144.73, 0.000, 0.000, 0.000, 22:15:16.937, 1541906116937
224, -168948.50, 187500.00, 187500.00, 187500.00, -169144.58, -169046.70, -169211.91, -169154.80, 0.000, 0.000, 0.000, 22:15:17.401, 1541906117401
225, -168932.33, 187500.00, 187500.00, 187500.00, -169131.08, -169033.19, -169198.39, -169141.36, 0.000, 0.000, 0.000, 22:15:17.401, 1541906117401
226, -168921.22, 187500.00, 187500.00, 187500.00, -169121.55, -169023.59, -169188.80, -169131.80, 0.000, 0.000, 0.000, 22:15:17.401, 1541906117401
227, -168944.63, 187500.00, 187500.00, 187500.00, -169141.81, -169043.83, -169209.09, -169152.03, 0.016, 0.370, 0.918, 22:15:17.402, 1541906117402
228, -168960.39, 187500.00, 187500.00, 187500.00, -169156.30, -169058.44, -169223.64, -169166.63, 0.000, 0.000, 0.000, 22:15:17.402, 1541906117402
229, -168948.30, 187500.00, 187500.00, 187500.00, -169146.63, -169048.67, -169213.92, -169156.92, 0.000, 0.000, 0.000, 22:15:17.402, 1541906117402
230, -168932.75, 187500.00, 187500.00, 187500.00, -169133.47, -169035.55, -169200.73, -169143.78, 0.000, 0.000, 0.000, 22:15:17.402, 1541906117402
231, -168954.39, 187500.00, 187500.00, 187500.00, -169152.13, -169054.27, -169219.33, -169162.20, 0.000, 0.000, 0.000, 22:15:17.403, 1541906117403
232, -168973.53, 187500.00, 187500.00, 187500.00, -169169.33, -169071.45, -169236.56, -169179.44, 0.000, 0.000, 0.000, 22:15:17.403, 1541906117403
233, -168967.78, 187500.00, 187500.00, 187500.00, -169165.19, -169067.19, -169232.34, -169175.34, 0.000, 0.000, 0.000, 22:15:17.403, 1541906117403
234, -168950.39, 187500.00, 187500.00, 187500.00, -169150.70, -169052.72, -169217.94, -169160.88, 0.000, 0.000, 0.000, 22:15:17.403, 1541906117403
235, -168967.36, 187500.00, 187500.00, 187500.00, -169165.34, -169067.45, -169232.67, -169175.55, 0.000, 0.000, 0.000, 22:15:17.403, 1541906117403
236, -168990.38, 187500.00, 187500.00, 187500.00, -169186.16, -169088.17, -169253.45, -169196.28, 0.000, 0.000, 0.000, 22:15:17.403, 1541906117403
237, -168989.17, 187500.00, 187500.00, 187500.00, -169185.91, -169087.91, -169253.14, -169196.08, 0.010, 0.372, 0.920, 22:15:17.404, 1541906117404
238, -168969.55, 187500.00, 187500.00, 187500.00, -169169.47, -169071.47, -169236.66, -169179.61, 0.000, 0.000, 0.000, 22:15:17.404, 1541906117404
239, -168980.23, 187500.00, 187500.00, 187500.00, -169178.73, -169080.75, -169245.86, -169188.97, 0.000, 0.000, 0.000, 22:15:17.404, 1541906117404
240, -169007.45, 187500.00, 187500.00, 187500.00, -169203.45, -169105.45, -169270.52, -169213.58, 0.000, 0.000, 0.000, 22:15:17.404, 1541906117404
241, -169013.02, 187500.00, 187500.00, 187500.00, -169209.34, -169111.33, -169276.61, -169219.48, 0.000, 0.000, 0.000, 22:15:17.404, 1541906117404
242, -168993.11, 187500.00, 187500.00, 187500.00, -169192.31, -169094.42, -169259.77, -169202.63, 0.000, 0.000, 0.000, 22:15:17.404, 1541906117404
243, -168996.38, 187500.00, 187500.00, 187500.00, -169195.09, -169097.25, -169262.52, -169205.52, 0.000, 0.000, 0.000, 22:15:17.404, 1541906117404
244, -169021.98, 187500.00, 187500.00, 187500.00, -169217.92, -169120.00, -169285.22, -169228.16, 0.000, 0.000, 0.000, 22:15:17.404, 1541906117404
245, -169029.97, 187500.00, 187500.00, 187500.00, -169225.77, -169127.86, -169293.05, -169236.05, 0.000, 0.000, 0.000, 22:15:17.404, 1541906117404
246, -169013.53, 187500.00, 187500.00, 187500.00, -169212.17, -169114.23, -169279.55, -169222.45, 0.000, 0.000, 0.000, 22:15:17.404, 1541906117404
247, -169009.36, 187500.00, 187500.00, 187500.00, -169208.56, -169110.75, -169275.88, -169218.84, 0.000, 0.000, 0.000, 22:15:17.404, 1541906117404
248, -169033.59, 187500.00, 187500.00, 187500.00, -169229.83, -169131.98, -169297.11, -169240.03, 0.014, 0.374, 0.916, 22:15:17.404, 1541906117404
249, -169047.06, 187500.00, 187500.00, 187500.00, -169242.53, -169144.70, -169309.81, -169252.81, 0.000, 0.000, 0.000, 22:15:17.404, 1541906117404
250, -169034.66, 187500.00, 187500.00, 187500.00, -169232.81, -169134.92, -169300.11, -169243.14, 0.000, 0.000, 0.000, 22:15:17.405, 1541906117405
251, -169020.84, 187500.00, 187500.00, 187500.00, -169220.67, -169122.77, -169287.95, -169231.02, 0.000, 0.000, 0.000, 22:15:17.405, 1541906117405
252, -169044.88, 187500.00, 187500.00, 187500.00, -169241.81, -169143.94, -169309.09, -169252.16, 0.000, 0.000, 0.000, 22:15:17.405, 1541906117405
253, -169061.08, 187500.00, 187500.00, 187500.00, -169256.81, -169158.94, -169324.11, -169267.14, 0.000, 0.000, 0.000, 22:15:17.405, 1541906117405
254, -169051.63, 187500.00, 187500.00, 187500.00, -169249.44, -169151.56, -169316.83, -169259.72, 0.000, 0.000, 0.000, 22:15:17.405, 1541906117405
255, -169034.59, 187500.00, 187500.00, 187500.00, -169234.81, -169136.84, -169302.14, -169245.02, 0.000, 0.000, 0.000, 22:15:17.405, 1541906117405
0, -169052.50, 187500.00, 187500.00, 187500.00, -169250.16, -169152.13, -169317.34, -169260.30, 0.000, 0.000, 0.000, 22:15:17.405, 1541906117405
1, -169072.36, 187500.00, 187500.00, 187500.00, -169268.09, -169170.09, -169335.38, -169278.30, 0.000, 0.000, 0.000, 22:15:17.405, 1541906117405
2, -169067.36, 187500.00, 187500.00, 187500.00, -169264.53, -169166.48, -169331.88, -169274.78, 0.014, 0.372, 0.916, 22:15:17.405, 1541906117405
3, -169048.06, 187500.00, 187500.00, 187500.00, -169248.16, -169150.08, -169315.48, -169258.41, 0.000, 0.000, 0.000, 22:15:17.405, 1541906117405
4, -169064.50, 187500.00, 187500.00, 187500.00, -169262.58, -169164.56, -169329.95, -169272.80, 0.000, 0.000, 0.000, 22:15:17.405, 1541906117405
5, -169088.34, 187500.00, 187500.00, 187500.00, -169284.22, -169186.20, -169351.67, -169294.52, 0.000, 0.000, 0.000, 22:15:17.405, 1541906117405
6, -169087.47, 187500.00, 187500.00, 187500.00, -169284.31, -169186.36, -169351.77, -169294.66, 0.000, 0.000, 0.000, 22:15:17.406, 1541906117406
7, -169065.44, 187500.00, 187500.00, 187500.00, -169265.17, -169167.31, -169332.72, -169275.61, 0.000, 0.000, 0.000, 22:15:17.406, 1541906117406
8, -169072.97, 187500.00, 187500.00, 187500.00, -169271.70, -169173.84, -169339.14, -169282.08, 0.000, 0.000, 0.000, 22:15:17.406, 1541906117406
9, -169097.56, 187500.00, 187500.00, 187500.00, -169293.72, -169195.80, -169361.08, -169303.94, 0.000, 0.000, 0.000, 22:15:17.406, 1541906117406
10, -169099.64, 187500.00, 187500.00, 187500.00, -169296.16, -169198.20, -169363.55, -169306.44, 0.000, 0.000, 0.000, 22:15:17.406, 1541906117406
11, -169079.86, 187500.00, 187500.00, 187500.00, -169279.45, -169181.63, -169346.95, -169289.84, 0.000, 0.000, 0.000, 22:15:17.406, 1541906117406
12, -169078.52, 187500.00, 187500.00, 187500.00, -169278.05, -169180.11, -169345.50, -169288.38, 0.018, 0.374, 0.916, 22:15:17.406, 1541906117406
13, -169101.63, 187500.00, 187500.00, 187500.00, -169298.39, -169200.39, -169365.78, -169308.61, 0.000, 0.000, 0.000, 22:15:17.406, 1541906117406
14, -169109.45, 187500.00, 187500.00, 187500.00, -169306.08, -169208.02, -169373.47, -169316.22, 0.000, 0.000, 0.000, 22:15:17.406, 1541906117406
15, -169093.33, 187500.00, 187500.00, 187500.00, -169293.00, -169195.06, -169360.41, -169303.27, 0.000, 0.000, 0.000, 22:15:17.408, 1541906117408
16, -169085.11, 187500.00, 187500.00, 187500.00, -169285.53, -169187.67, -169352.97, -169295.81, 0.000, 0.000, 0.000, 22:15:17.408, 1541906117408
17, -169108.33, 187500.00, 187500.00, 187500.00, -169305.56, -169207.70, -169373.05, -169315.83, 0.000, 0.000, 0.000, 22:15:17.408, 1541906117408
18, -169125.39, 187500.00, 187500.00, 187500.00, -169321.75, -169223.78, -169389.16, -169332.03, 0.000, 0.000, 0.000, 22:15:17.409, 1541906117409
19, -169111.73, 187500.00, 187500.00, 187500.00, -169310.34, -169212.56, -169377.88, -169320.83, 0.000, 0.000, 0.000, 22:15:17.409, 1541906117409
20, -169097.33, 187500.00, 187500.00, 187500.00, -169297.72, -169199.84, -169365.23, -169308.09, 0.000, 0.000, 0.000, 22:15:17.409, 1541906117409
21, -169122.56, 187500.00, 187500.00, 187500.00, -169320.09, -169222.09, -169387.59, -169330.38, 0.000, 0.000, 0.000, 22:15:17.409, 1541906117409
22, -169139.75, 187500.00, 187500.00, 187500.00, -169335.84, -169237.88, -169403.23, -169346.17, 0.016, 0.374, 0.910, 22:15:17.409, 1541906117409
23, -169133.77, 187500.00, 187500.00, 187500.00, -169331.72, -169233.81, -169399.16, -169342.11, 0.000, 0.000, 0.000, 22:15:17.409, 1541906117409
24, -169118.67, 187500.00, 187500.00, 187500.00, -169319.05, -169221.20, -169386.55, -169329.45, 0.000, 0.000, 0.000, 22:15:17.409, 1541906117409
25, -169138.70, 187500.00, 187500.00, 187500.00, -169336.67, -169238.73, -169404.06, -169346.94, 0.000, 0.000, 0.000, 22:15:17.409, 1541906117409
26, -169160.55, 187500.00, 187500.00, 187500.00, -169356.61, -169258.63, -169423.98, -169366.92, 0.000, 0.000, 0.000, 22:15:17.409, 1541906117409
27, -169156.70, 187500.00, 187500.00, 187500.00, -169354.05, -169256.14, -169421.55, -169364.48, 0.000, 0.000, 0.000, 22:15:17.409, 1541906117409
28, -169136.25, 187500.00, 187500.00, 187500.00, -169336.50, -169238.64, -169404.00, -169346.89, 0.000, 0.000, 0.000, 22:15:17.409, 1541906117409
29, -169151.06, 187500.00, 187500.00, 187500.00, -169349.59, -169251.67, -169417.05, -169359.98, 0.000, 0.000, 0.000, 22:15:17.410, 1541906117410
30, -169176.28, 187500.00, 187500.00, 187500.00, -169372.44, -169274.61, -169439.89, -169382.77, 0.000, 0.000, 0.000, 22:15:17.410, 1541906117410
31, -169179.44, 187500.00, 187500.00, 187500.00, -169376.17, -169278.27, -169443.63, -169386.45, 0.000, 0.000, 0.000, 22:15:17.410, 1541906117410
32, -169159.14, 187500.00, 187500.00, 187500.00, -169358.77, -169260.95, -169426.27, -169369.16, 0.020, 0.378, 0.914, 22:15:17.410, 1541906117410
33, -169165.19, 187500.00, 187500.00, 187500.00, -169363.88, -169265.98, -169431.45, -169374.34, 0.000, 0.000, 0.000, 22:15:17.410, 1541906117410
34, -169189.09, 187500.00, 187500.00, 187500.00, -169385.11, -169287.19, -169452.61, -169395.48, 0.000, 0.000, 0.000, 22:15:17.410, 1541906117410
35, -169195.59, 187500.00, 187500.00, 187500.00, -169391.81, -169293.97, -169459.23, -169402.19, 0.000, 0.000, 0.000, 22:15:17.410, 1541906117410
36, -169175.97, 187500.00, 187500.00, 187500.00, -169375.03, -169277.17, -169442.47, -169385.48, 0.000, 0.000, 0.000, 22:15:17.410, 1541906117410
37, -169175.08, 187500.00, 187500.00, 187500.00, -169374.19, -169276.22, -169441.59, -169384.64, 0.000, 0.000, 0.000, 22:15:17.410, 1541906117410
38, -169197.64, 187500.00, 187500.00, 187500.00, -169394.05, -169296.06, -169461.44, -169404.41, 0.000, 0.000, 0.000, 22:15:17.410, 1541906117410
39, -169206.20, 187500.00, 187500.00, 187500.00, -169402.17, -169304.33, -169469.72, -169412.56, 0.000, 0.000, 0.000, 22:15:17.410, 1541906117410
40, -169190.27, 187500.00, 187500.00, 187500.00, -169388.86, -169291.02, -169456.38, -169399.28, 0.000, 0.000, 0.000, 22:15:17.411, 1541906117411
41, -169181.33, 187500.00, 187500.00, 187500.00, -169380.94, -169283.13, -169448.50, -169391.39, 0.000, 0.000, 0.000, 22:15:17.411, 1541906117411
42, -169203.64, 187500.00, 187500.00, 187500.00, -169400.48, -169302.55, -169467.95, -169410.81, 0.020, 0.376, 0.918, 22:15:17.411, 1541906117411
43, -169220.09, 187500.00, 187500.00, 187500.00, -169416.06, -169318.08, -169483.48, -169426.39, 0.000, 0.000, 0.000, 22:15:17.411, 1541906117411
44, -169210.17, 187500.00, 187500.00, 187500.00, -169408.22, -169310.23, -169475.70, -169418.58, 0.000, 0.000, 0.000, 22:15:17.411, 1541906117411
45, -169197.38, 187500.00, 187500.00, 187500.00, -169397.19, -169299.23, -169464.59, -169407.53, 0.000, 0.000, 0.000, 22:15:17.411, 1541906117411
46, -169218.72, 187500.00, 187500.00, 187500.00, -169415.89, -169317.97, -169483.27, -169426.19, 0.000, 0.000, 0.000, 22:15:17.411, 1541906117411
47, -169236.92, 187500.00, 187500.00, 187500.00, -169432.52, -169334.67, -169500.02, -169442.83, 0.000, 0.000, 0.000, 22:15:17.411, 1541906117411
48, -169232.11, 187500.00, 187500.00, 187500.00, -169429.28, -169331.33, -169496.69, -169439.61, 0.000, 0.000, 0.000, 22:15:17.411, 1541906117411
49, -169215.38, 187500.00, 187500.00, 187500.00, -169414.84, -169316.83, -169482.23, -169425.23, 0.000, 0.000, 0.000, 22:15:17.411, 1541906117411
50, -169235.06, 187500.00, 187500.00, 187500.00, -169432.41, -169334.38, -169499.80, -169442.67, 0.000, 0.000, 0.000, 22:15:17.411, 1541906117411
51, -169253.19, 187500.00, 187500.00, 187500.00, -169448.61, -169350.69, -169516.16, -169458.89, 0.000, 0.000, 0.000, 22:15:17.411, 1541906117411
52, -169248.13, 187500.00, 187500.00, 187500.00, -169444.81, -169346.73, -169512.20, -169455.00, 0.016, 0.372, 0.920, 22:15:17.412, 1541906117412
53, -169228.11, 187500.00, 187500.00, 187500.00, -169427.52, -169329.50, -169494.97, -169437.80, 0.000, 0.000, 0.000, 22:15:17.412, 1541906117412
54, -169241.38, 187500.00, 187500.00, 187500.00, -169439.16, -169341.17, -169506.77, -169449.63, 0.000, 0.000, 0.000, 22:15:17.412, 1541906117412
55, -169266.83, 187500.00, 187500.00, 187500.00, -169462.53, -169364.48, -169530.05, -169472.86, 0.000, 0.000, 0.000, 22:15:17.412, 1541906117412
56, -169268.02, 187500.00, 187500.00, 187500.00, -169464.27, -169366.31, -169531.77, -169474.63, 0.000, 0.000, 0.000, 22:15:17.412, 1541906117412
57, -169246.36, 187500.00, 187500.00, 187500.00, -169445.50, -169347.58, -169513.03, -169455.86, 0.000, 0.000, 0.000, 22:15:17.412, 1541906117412
58, -169250.55, 187500.00, 187500.00, 187500.00, -169449.00, -169351.05, -169516.39, -169459.30, 0.000, 0.000, 0.000, 22:15:17.412, 1541906117412
59, -169274.20, 187500.00, 187500.00, 187500.00, -169470.08, -169372.11, -169537.55, -169480.28, 0.000, 0.000, 0.000, 22:15:17.413, 1541906117413
60, -169283.69, 187500.00, 187500.00, 187500.00, -169479.58, -169381.61, -169547.14, -169489.86, 0.000, 0.000, 0.000, 22:15:17.413, 1541906117413
61, -169263.98, 187500.00, 187500.00, 187500.00, -169462.52, -169364.50, -169530.08, -169472.86, 0.000, 0.000, 0.000, 22:15:17.413, 1541906117413
62, -169260.72, 187500.00, 187500.00, 187500.00, -169459.50, -169361.44, -169526.91, -169469.69, 0.018, 0.374, 0.918, 22:15:17.413, 1541906117413
63, -169286.31, 187500.00, 187500.00, 187500.00, -169482.41, -169384.39, -169549.83, -169492.64, 0.000, 0.000, 0.000, 22:15:17.413, 1541906117413
64, -169295.58, 187500.00, 187500.00, 187500.00, -169491.22, -169393.20, -169558.66, -169501.47, 0.000, 0.000, 0.000, 22:15:17.413, 1541906117413
65, -169279.02, 187500.00, 187500.00, 187500.00, -169477.06, -169379.13, -169544.59, -169487.34, 0.000, 0.000, 0.000, 22:15:17.413, 1541906117413
66, -169269.08, 187500.00, 187500.00, 187500.00, -169468.38, -169370.36, -169535.78, -169478.61, 0.000, 0.000, 0.000, 22:15:17.413, 1541906117413
67, -169291.09, 187500.00, 187500.00, 187500.00, -169487.86, -169389.73, -169555.20, -169498.06, 0.000, 0.000, 0.000, 22:15:17.413, 1541906117413
68, -169305.72, 187500.00, 187500.00, 187500.00, -169501.56, -169403.55, -169568.86, -169511.80, 0.000, 0.000, 0.000, 22:15:17.413, 1541906117413
69, -169291.59, 187500.00, 187500.00, 187500.00, -169489.58, -169391.58, -169556.84, -169499.80, 0.000, 0.000, 0.000, 22:15:17.414, 1541906117414
70, -169273.52, 187500.00, 187500.00, 187500.00, -169473.53, -169375.55, -169540.81, -169483.70, 0.000, 0.000, 0.000, 22:15:17.414, 1541906117414
71, -169291.09, 187500.00, 187500.00, 187500.00, -169488.73, -169390.81, -169556.08, -169499.02, 0.000, 0.000, 0.000, 22:15:17.414, 1541906117414
72, -169308.56, 187500.00, 187500.00, 187500.00, -169504.83, -169406.75, -169572.16, -169515.05, 0.000, 0.000, 0.000, 22:15:17.414, 1541906117414
73, -169296.28, 187500.00, 187500.00, 187500.00, -169494.19, -169396.16, -169561.58, -169504.41, 0.026, 0.376, 0.918, 22:15:17.414, 1541906117414
74, -169274.05, 187500.00, 187500.00, 187500.00, -169474.42, -169376.53, -169541.95, -169484.69, 0.000, 0.000, 0.000, 22:15:17.414, 1541906117414
75, -169289.38, 187500.00, 187500.00, 187500.00, -169487.75, -169389.83, -169555.23, -169497.91, 0.000, 0.000, 0.000, 22:15:17.414, 1541906117414
76, -169310.09, 187500.00, 187500.00, 187500.00, -169506.53, -169408.56, -169573.94, -169516.67, 0.000, 0.000, 0.000, 22:15:17.414, 1541906117414
77, -169305.89, 187500.00, 187500.00, 187500.00, -169503.39, -169405.45, -169570.86, -169513.66, 0.000, 0.000, 0.000, 22:15:17.414, 1541906117414
78, -169283.75, 187500.00, 187500.00, 187500.00, -169484.23, -169386.34, -169551.70, -169494.55, 0.000, 0.000, 0.000, 22:15:17.414, 1541906117414
79, -169294.72, 187500.00, 187500.00, 187500.00, -169493.83, -169395.97, -169561.27, -169504.14, 0.000, 0.000, 0.000, 22:15:17.415, 1541906117415
80, -169315.16, 187500.00, 187500.00, 187500.00, -169511.88, -169413.92, -169579.30, -169522.22, 0.000, 0.000, 0.000, 22:15:17.415, 1541906117415
81, -169314.28, 187500.00, 187500.00, 187500.00, -169511.69, -169413.80, -169579.11, -169522.02, 0.000, 0.000, 0.000, 22:15:17.415, 1541906117415
82, -169290.81, 187500.00, 187500.00, 187500.00, -169491.44, -169393.61, -169558.88, -169501.91, 0.000, 0.000, 0.000, 22:15:17.415, 1541906117415
83, -169293.69, 187500.00, 187500.00, 187500.00, -169493.78, -169395.95, -169561.31, -169504.20, 0.024, 0.378, 0.926, 22:15:17.415, 1541906117415
84, -169318.13, 187500.00, 187500.00, 187500.00, -169515.72, -169417.83, -169583.16, -169525.92, 0.000, 0.000, 0.000, 22:15:17.416, 1541906117416
85, -169324.77, 187500.00, 187500.00, 187500.00, -169522.39, -169424.52, -169589.86, -169532.64, 0.000, 0.000, 0.000, 22:15:17.416, 1541906117416
86, -169304.84, 187500.00, 187500.00, 187500.00, -169505.81, -169407.86, -169573.22, -169516.08, 0.000, 0.000, 0.000, 22:15:17.416, 1541906117416
87, -169300.47, 187500.00, 187500.00, 187500.00, -169502.08, -169404.20, -169569.52, -169512.31, 0.000, 0.000, 0.000, 22:15:17.416, 1541906117416
88, -169325.17, 187500.00, 187500.00, 187500.00, -169523.72, -169425.80, -169591.16, -169533.97, 0.000, 0.000, 0.000, 22:15:17.417, 1541906117417
89, -169334.69, 187500.00, 187500.00, 187500.00, -169532.77, -169434.73, -169600.16, -169542.92, 0.000, 0.000, 0.000, 22:15:17.436, 1541906117436
90, -169319.06, 187500.00, 187500.00, 187500.00, -169520.11, -169422.02, -169587.53, -169530.36, 0.000, 0.000, 0.000, 22:15:17.436, 1541906117436
0, 0.00, 0.00, 0.00, 0.00, 0.00, 0.00, 0.00, 0.00, 0.026, 0.380, 0.920, 22:15:17.469, 1541906117469
176, -170406.98, 187500.00, 0.00, 187500.00, -170560.70, -170468.61, -170626.58, -168111.33, 0.000, 0.000, 0.000, 22:15:22.262, 1541906122262
177, -170433.08, 187500.00, 0.00, 187500.00, -170586.97, -170494.77, -170653.08, -168411.34, 0.000, 0.000, 0.000, 22:15:22.262, 1541906122262
178, -170442.86, 187500.00, 0.00, 187500.00, -170596.91, -170504.70, -170663.08, -168516.09, 0.036, 0.380, 0.912, 22:15:22.262, 1541906122262
179, -170424.11, 187500.00, 0.00, 187500.00, -170577.88, -170485.78, -170643.88, -168257.89, 0.000, 0.000, 0.000, 22:15:22.262, 1541906122262
180, -170414.77, 187500.00, 0.00, 187500.00, -170568.33, -170476.39, -170634.34, -168106.45, 0.000, 0.000, 0.000, 22:15:22.262, 1541906122262
181, -170440.31, 187500.00, 0.00, 187500.00, -170594.23, -170502.09, -170660.39, -168394.89, 0.000, 0.000, 0.000, 22:15:22.262, 1541906122262
49, -173167.23, 187500.00, 0.00, 187500.00, -173355.83, -173263.78, -173422.80, -172018.89, 0.000, 0.000, 0.000, 22:15:27.975, 1541906127975
50, -173147.64, 187500.00, 0.00, 187500.00, -173337.64, -173245.61, -173404.47, -171783.