%OpenBCI Raw EEG Data
%Number of channels = 8
%Sample Rate = 250.0 Hz
%First Column = SampleIndex
%Last Column = Timestamp 
%Other Columns = EEG data in microvolts followed by Accel Data (in G) interleaved with Aux Data
0, 0.00, 0.00, 0.00, 0.00, 0.00, 0.00, 0.00, 0.00, 0.000, 0.000, 0.000, 22:48:57.015, 1541908137015
1, -545.40, 15140.67, 0.00, 0.00, -187500.02, -187500.02, -187500.02, -187500.02, 0.094, 0.832, 0.554, 22:48:57.500, 1541908137500
2, -402.38, 15106.18, 0.00, 0.00, -187500.02, -187500.02, -187500.02, -187500.02, 0.000, 0.000, 0.000, 22:48:57.501, 1541908137501
3, -172.38, 15538.62, 0.00, 0.00, -187500.02, -187500.02, -187500.02, -187500.02, 0.000, 0.000, 0.000, 22:48:57.501, 1541908137501
4, -346.38, 15495.06, 0.00, 0.00, -187500.02, -187500.02, -187500.02, -187500.02, 0.000, 0.000, 0.000, 22:48:57.501, 1541908137501
5, -531.79, 15188.34, 0.00, 0.00, -187500.02, -187500.02, -187500.02, -187500.02, 0.000, 0.000, 0.000, 22:48:57.501, 1541908137501
6, -469.74, 15039.46, 0.00, 0.00, -187500.02, -187500.02, -187500.02, -187500.02, 0.000, 0.000, 0.000, 22:48:57.502, 1541908137502
7, -189.59, 15466.42, 0.00, 0.00, -187500.02, -187500.02, -187500.02, -187500.02, 0.000, 0.000, 0.000, 22:48:57.502, 1541908137502
8, -315.52, 15513.29, 0.00, 0.00, -187500.02, -187500.02, -187500.02, -187500.02, 0.108, 0.858, 0.518, 22:48:57.502, 1541908137502
9, -515.03, 15237.27, 0.00, 0.00, -187500.02, -187500.02, -187500.02, -187500.02, 0.000, 0.000, 0.000, 22:48:57.503, 1541908137503
10, -517.78, 15014.52, 0.00, 0.00, -187500.02, -187500.02, -187500.02, -187500.02, 0.000, 0.000, 0.000, 22:48:57.503, 1541908137503
11, -215.52, 15398.07, 0.00, 0.00, -187500.02, -187500.02, -187500.02, -187500.02, 0.000, 0.000, 0.000, 22:48:57.503, 1541908137503
12, -293.08, 15533.88, 0.00, 0.00, -187500.02, -187500.02, -187500.02, -187500.02, 0.000, 0.000, 0.000, 22:48:57.505, 1541908137505
13, -504.41, 15286.47, 0.00, 0.00, -187500.02, -187500.02, -187500.02, -187500.02, 0.000, 0.000, 0.000, 22:48:57.505, 1541908137505
14, -559.62, 15012.53, 0.00, 0.00, -187500.02, -187500.02, -187500.02, -187500.02, 0.000, 0.000, 0.000, 22:48:57.505, 1541908137505
15, -257.43, 15317.63, 0.00, 0.00, -187500.02, -187500.02, -187500.02, -187500.02, 0.000, 0.000, 0.000, 22:48:57.506, 1541908137506
16, -247.37, 15564.55, 0.00, 0.00, -187500.02, -187500.02, -187500.02, -187500.02, 0.000, 0.000, 0.000, 22:48:57.507, 1541908137507
17, -472.63, 15350.89, 0.00, 0.00, -187500.02, -187500.02, -187500.02, -187500.02, 0.110, 0.862, 0.508, 22:48:57.507, 1541908137507
18, -583.85, 15044.56, 0.00, 0.00, -187500.02, -187500.02, -187500.02, -187500.02, 0.000, 0.000, 0.000, 22:48:57.507, 1541908137507
19, -316.14, 15244.07, 0.00, 0.00, -187500.02, -187500.02, -187500.02, -187500.02, 0.000, 0.000, 0.000, 22:48:57.508, 1541908137508
20, -228.95, 15576.39, 0.00, 0.00, -187500.02, -187500.02, -187500.02, -187500.02, 0.000, 0.000, 0.000, 22:48:57.508, 1541908137508
21, -455.22, 15392.66, 0.00, 0.00, -187500.02, -187500.02, -187500.02, -187500.02, 0.000, 0.000, 0.000, 22:48:57.508, 1541908137508
22, -604.44, 15062.59, 0.00, 0.00, -187500.02, -187500.02, -187500.02, -187500.02, 0.000, 0.000, 0.000, 22:48:57.508, 1541908137508
23, -412.70, 15102.80, 0.00, 0.00, -187500.02, -187500.02, -187500.02, -187500.02, 0.000, 0.000, 0.000, 22:48:57.508, 1541908137508
24, -233.31, 15485.49, 0.00, 0.00, -187500.02, -187500.02, -187500.02, -187500.02, 0.000, 0.000, 0.000, 22:48:57.508, 1541908137508
25, -425.78, 15365.68, 0.00, 0.00, -187500.02, -187500.02, -187500.02, -187500.02, 0.000, 0.000, 0.000, 22:48:57.508, 1541908137508
26, -605.89, 15038.43, 0.00, 0.00, -187500.02, -187500.02, -187500.02, -187500.02, 0.000, 0.000, 0.000, 22:48:57.508, 1541908137508
27, -497.66, 14953.90, 0.00, 0.00, -187500.02, -187500.02, -187500.02, -187500.02, 0.106, 0.846, 0.516, 22:48:57.508, 1541908137508
28, -250.41, 15386.43, 0.00, 0.00, -187500.02, -187500.02, -187500.02, -187500.02, 0.000, 0.000, 0.000, 22:48:57.508, 1541908137508
29, -415.59, 15358.29, 0.00, 0.00, -187500.02, -187500.02, -187500.02, -187500.02, 0.000, 0.000, 0.000, 22:48:57.513, 1541908137513
30, -603.85, 15062.95, 0.00, 0.00, -187500.02, -187500.02, -187500.02, -187500.02, 0.000, 0.000, 0.000, 22:48:57.513, 1541908137513
31, -557.97, 14889.50, 0.00, 0.00, -187500.02, -187500.02, -187500.02, -187500.02, 0.000, 0.000, 0.000, 22:48:57.514, 1541908137514
32, -256.37, 15309.67, 0.00, 0.00, -187500.02, -187500.02, -187500.02, -187500.02, 0.000, 0.000, 0.000, 22:48:57.514, 1541908137514
33, -371.28, 15366.73, 0.00, 0.00, -187500.02, -187500.02, -187500.02, -187500.02, 0.000, 0.000, 0.000, 22:48:57.514, 1541908137514
34, -580.56, 15091.38, 0.00, 0.00, -187500.02, -187500.02, -187500.02, -187500.02, 0.000, 0.000, 0.000, 22:48:57.514, 1541908137514
35, -594.29, 14853.16, 0.00, 0.00, -187500.02, -187500.02, -187500.02, -187500.02, 0.000, 0.000, 0.000, 22:48:57.514, 1541908137514
36, -283.78, 15213.02, 0.00, 0.00, -187500.02, -187500.02, -187500.02, -187500.02, 0.000, 0.000, 0.000, 22:48:57.514, 1541908137514
37, -333.40, 15372.17, 0.00, 0.00, -187500.02, -187500.02, -187500.02, -187500.02, 0.110, 0.848, 0.516, 22:48:57.514, 1541908137514
38, -545.85, 15132.94, 0.00, 0.00, -187500.02, -187500.02, -187500.02, -187500.02, 0.000, 0.000, 0.000, 22:48:57.514, 1541908137514
39, -615.25, 14846.50, 0.00, 0.00, -187500.02, -187500.02, -187500.02, -187500.02, 0.000, 0.000, 0.000, 22:48:57.514, 1541908137514
40, -317.10, 15125.92, 0.00, 0.00, -187500.02, -187500.02, -187500.02, -187500.02, 0.000, 0.000, 0.000, 22:48:57.514, 1541908137514
41, -292.47, 15385.87, 0.00, 0.00, -187500.02, -187500.02, -187500.02, -187500.02, 0.000, 0.000, 0.000, 22:48:57.514, 1541908137514
42, -512.12, 15183.43, 0.00, 0.00, -187500.02, -187500.02, -187500.02, -187500.02, 0.000, 0.000, 0.000, 22:48:57.515, 1541908137515
43, -625.89, 14879.71, 0.00, 0.00, -187500.02, -187500.02, -187500.02, -187500.02, 0.000, 0.000, 0.000, 22:48:57.515, 1541908137515
44, -371.53, 15045.54, 0.00, 0.00, -187500.02, -187500.02, -187500.02, -187500.02, 0.000, 0.000, 0.000, 22:48:57.515, 1541908137515
45, -261.05, 15395.75, 0.00, 0.00, -187500.02, -187500.02, -187500.02, -187500.02, 0.000, 0.000, 0.000, 22:48:57.515, 1541908137515
46, -472.23, 15246.26, 0.00, 0.00, -187500.02, -187500.02, -187500.02, -187500.02, 0.000, 0.000, 0.000, 22:48:57.515, 1541908137515
47, -622.38, 14933.92, 0.00, 0.00, -187500.02, -187500.02, -187500.02, -187500.02, 0.108, 0.852, 0.520, 22:48:57.515, 1541908137515
48, -441.16, 14958.61, 0.00, 0.00, -187500.02, -187500.02, -187500.02, -187500.02, 0.000, 0.000, 0.000, 22:48:57.515, 1541908137515
49, -248.71, 15360.12, 0.00, 0.00, -187500.02, -187500.02, -187500.02, -187500.02, 0.000, 0.000, 0.000, 22:48:57.515, 1541908137515
50, -434.99, 15274.76, 0.00, 0.00, -187500.02, -187500.02, -187500.02, -187500.02, 0.000, 0.000, 0.000, 22:48:57.515, 1541908137515
51, -611.25, 14966.15, 0.00, 0.00, -187500.02, -187500.02, -187500.02, -187500.02, 0.000, 0.000, 0.000, 22:48:57.515, 1541908137515
52, -495.56, 14883.96, 0.00, 0.00, -187500.02, -187500.02, -187500.02, -187500.02, 0.000, 0.000, 0.000, 22:48:57.515, 1541908137515
53, -238.98, 15314.14, 0.00, 0.00, -187500.02, -187500.02, -187500.02, -187500.02, 0.000, 0.000, 0.000, 22:48:57.516, 1541908137516
54, -399.81, 15301.36, 0.00, 0.00, -187500.02, -187500.02, -187500.02, -187500.02, 0.000, 0.000, 0.000, 22:48:57.516, 1541908137516
55, -587.09, 15017.42, 0.00, 0.00, -187500.02, -187500.02, -187500.02, -187500.02, 0.000, 0.000, 0.000, 22:48:57.516, 1541908137516
56, -544.53, 14844.35, 0.00, 0.00, -187500.02, -187500.02, -187500.02, -187500.02, 0.108, 0.854, 0.520, 22:48:57.516, 1541908137516
57, -249.71, 15254.82, 0.00, 0.00, -187500.02, -187500.02, -187500.02, -187500.02, 0.000, 0.000, 0.000, 22:48:57.516, 1541908137516
58, -356.85, 15331.91, 0.00, 0.00, -187500.02, -187500.02, -187500.02, -187500.02, 0.000, 0.000, 0.000, 22:48:57.516, 1541908137516
59, -564.29, 15064.47, 0.00, 0.00, -187500.02, -187500.02, -187500.02, -187500.02, 0.000, 0.000, 0.000, 22:48:57.516, 1541908137516
60, -594.53, 14812.57, 0.00, 0.00, -187500.02, -187500.02, -187500.02, -187500.02, 0.000, 0.000, 0.000, 22:48:57.516, 1541908137516
61, -294.17, 15157.99, 0.00, 0.00, -187500.02, -187500.02, -187500.02, -187500.02, 0.000, 0.000, 0.000, 22:48:57.516, 1541908137516
62, -340.84, 15331.91, 0.00, 0.00, -187500.02, -187500.02, -187500.02, -187500.02, 0.000, 0.000, 0.000, 22:48:57.516, 1541908137516
63, -547.55, 15103.61, 0.00, 0.00, -187500.02, -187500.02, -187500.02, -187500.02, 0.000, 0.000, 0.000, 22:48:57.517, 1541908137517
64, -609.17, 14831.23, 0.00, 0.00, -187500.02, -187500.02, -187500.02, -187500.02, 0.000, 0.000, 0.000, 22:48:57.517, 1541908137517
65, -329.82, 15081.59, 0.00, 0.00, -187500.02, -187500.02, -187500.02, -187500.02, 0.000, 0.000, 0.000, 22:48:57.517, 1541908137517
66, -293.57, 15344.05, 0.00, 0.00, -187500.02, -187500.02, -187500.02, -187500.02, 0.112, 0.846, 0.516, 22:48:57.517, 1541908137517
67, -493.35, 15162.62, 0.00, 0.00, -187500.02, -187500.02, -187500.02, -187500.02, 0.000, 0.000, 0.000, 22:48:57.518, 1541908137518
68, -612.75, 14845.92, 0.00, 0.00, -187500.02, -187500.02, -187500.02, -187500.02, 0.000, 0.000, 0.000, 22:48:57.519, 1541908137519
69, -369.85, 14966.55, 0.00, 0.00, -187500.02, -187500.02, -187500.02, -187500.02, 0.000, 0.000, 0.000, 22:48:57.519, 1541908137519
70, -248.19, 15314.86, 0.00, 0.00, -187500.02, -187500.02, -187500.02, -187500.02, 0.000, 0.000, 0.000, 22:48:57.519, 1541908137519
71, -456.85, 15175.36, 0.00, 0.00, -187500.02, -187500.02, -187500.02, -187500.02, 0.000, 0.000, 0.000, 22:48:57.519, 1541908137519
72, -605.26, 14867.78, 0.00, 0.00, -187500.02, -187500.02, -187500.02, -187500.02, 0.000, 0.000, 0.000, 22:48:57.519, 1541908137519
73, -431.88, 14876.96, 0.00, 0.00, -187500.02, -187500.02, -187500.02, -187500.02, 0.000, 0.000, 0.000, 22:48:57.519, 1541908137519
74, -228.19, 15291.92, 0.00, 0.00, -187500.02, -187500.02, -187500.02, -187500.02, 0.000, 0.000, 0.000, 22:48:57.519, 1541908137519
75, -408.57, 15221.63, 0.00, 0.00, -187500.02, -187500.02, -187500.02, -187500.02, 0.000, 0.000, 0.000, 22:48:57.519, 1541908137519
76, -584.36, 14907.47, 0.00, 0.00, -187500.02, -187500.02, -187500.02, -187500.02, 0.124, 0.850, 0.514, 22:48:57.519, 1541908137519
77, -483.22, 14800.99, 0.00, 0.00, -187500.02, -187500.02, -187500.02, -187500.02, 0.000, 0.000, 0.000, 22:48:57.520, 1541908137520
78, -220.70, 15227.53, 0.00, 0.00, -187500.02, -187500.02, -187500.02, -187500.02, 0.000, 0.000, 0.000, 22:48:57.520, 1541908137520
79, -362.03, 15240.09, 0.00, 0.00, -187500.02, -187500.02, -187500.02, -187500.02, 0.000, 0.000, 0.000, 22:48:57.520, 1541908137520
80, -543.39, 14965.14, 0.00, 0.00, -187500.02, -187500.02, -187500.02, -187500.02, 0.000, 0.000, 0.000, 22:48:57.520, 1541908137520
81, -519.97, 14769.67, 0.00, 0.00, -187500.02, -187500.02, -187500.02, -187500.02, 0.000, 0.000, 0.000, 22:48:57.529, 1541908137529
82, -222.36, 15171.33, 0.00, 0.00, -187500.02, -187500.02, -187500.02, -187500.02, 0.000, 0.000, 0.000, 22:48:57.530, 1541908137530
83, -310.71, 15278.91, 0.00, 0.00, -187500.02, -187500.02, -187500.02, -187500.02, 0.000, 0.000, 0.000, 22:48:57.530, 1541908137530
84, -511.77, 15022.96, 0.00, 0.00, -187500.02, -187500.02, -187500.02, -187500.02, 0.000, 0.000, 0.000, 22:48:57.531, 1541908137531
85, -548.11, 14768.80, 0.00, 0.00, -187500.02, -187500.02, -187500.02, -187500.02, 0.000, 0.000, 0.000, 22:48:57.531, 1541908137531
86, -254.18, 15098.51, 0.00, 0.00, -187500.02, -187500.02, -187500.02, -187500.02, 0.118, 0.852, 0.512, 22:48:57.531, 1541908137531
87, -290.89, 15288.35, 0.00, 0.00, -187500.02, -187500.02, -187500.02, -187500.02, 0.000, 0.000, 0.000, 22:48:57.531, 1541908137531
88, -511.45, 15066.33, 0.00, 0.00, -187500.02, -187500.02, -187500.02, -187500.02, 0.000, 0.000, 0.000, 22:48:57.531, 1541908137531
89, -596.77, 14779.20, 0.00, 0.00, -187500.02, -187500.02, -187500.02, -187500.02, 0.000, 0.000, 0.000, 22:48:57.531, 1541908137531
90, -310.69, 15019.68, 0.00, 0.00, -187500.02, -187500.02, -187500.02, -187500.02, 0.000, 0.000, 0.000, 22:48:57.531, 1541908137531
91, -256.93, 15313.92, 0.00, 0.00, -187500.02, -187500.02, -187500.02, -187500.02, 0.000, 0.000, 0.000, 22:48:57.531, 1541908137531
92, -479.58, 15131.15, 0.00, 0.00, -187500.02, -187500.02, -187500.02, -187500.02, 0.000, 0.000, 0.000, 22:48:57.531, 1541908137531
93, -610.52, 14814.49, 0.00, 0.00, -187500.02, -187500.02, -187500.02, -187500.02, 0.000, 0.000, 0.000, 22:48:57.531, 1541908137531
94, -388.70, 14919.99, 0.00, 0.00, -187500.02, -187500.02, -187500.02, -187500.02, 0.000, 0.000, 0.000, 22:48:57.531, 1541908137531
95, -251.03, 15294.56, 0.00, 0.00, -187500.02, -187500.02, -187500.02, -187500.02, 0.000, 0.000, 0.000, 22:48:57.532, 1541908137532
96, -452.76, 15171.96, 0.00, 0.00, -187500.02, -187500.02, -187500.02, -187500.02, 0.120, 0.846, 0.518, 22:48:57.532, 1541908137532
97, -600.21, 14868.18, 0.00, 0.00, -187500.02, -187500.02, -187500.02, -187500.02, 0.000, 0.000, 0.000, 22:48:57.532, 1541908137532
98, -439.44, 14859.57, 0.00, 0.00, -187500.02, -187500.02, -187500.02, -187500.02, 0.000, 0.000, 0.000, 22:48:57.532, 1541908137532
99, -223.12, 15282.00, 0.00, 0.00, -187500.02, -187500.02, -187500.02, -187500.02, 0.000, 0.000, 0.000, 22:48:57.532, 1541908137532
100, -409.98, 15218.59, 0.00, 0.00, -187500.02, -187500.02, -187500.02, -187500.02, 0.000, 0.000, 0.000, 22:48:57.532, 1541908137532
101, -577.30, 14929.49, 0.00, 0.00, -187500.02, -187500.02, -187500.02, -187500.02, 0.000, 0.000, 0.000, 22:48:57.532, 1541908137532
102, -486.28, 14813.19, 0.00, 0.00, -187500.02, -187500.02, -187500.02, -187500.02, 0.000, 0.000, 0.000, 22:48:57.532, 1541908137532
103, -213.55, 15249.39, 0.00, 0.00, -187500.02, -187500.02, -187500.02, -187500.02, 0.000, 0.000, 0.000, 22:48:57.532, 1541908137532
104, -353.96, 15275.70, 0.00, 0.00, -187500.02, -187500.02, -187500.02, -187500.02, 0.000, 0.000, 0.000, 22:48:57.532, 1541908137532
105, -549.34, 14996.41, 0.00, 0.00, -187500.02, -187500.02, -187500.02, -187500.02, 0.112, 0.852, 0.512, 22:48:57.532, 1541908137532
106, -529.94, 14796.41, 0.00, 0.00, -187500.02, -187500.02, -187500.02, -187500.02, 0.000, 0.000, 0.000, 22:48:57.533, 1541908137533
107, -224.84, 15191.07, 0.00, 0.00, -187500.02, -187500.02, -187500.02, -187500.02, 0.000, 0.000, 0.000, 22:48:57.533, 1541908137533
108, -310.42, 15311.75, 0.00, 0.00, -187500.02, -187500.02, -187500.02, -187500.02, 0.000, 0.000, 0.000, 22:48:57.533, 1541908137533
109, -513.51, 15070.86, 0.00, 0.00, -187500.02, -187500.02, -187500.02, -187500.02, 0.000, 0.000, 0.000, 22:48:57.533, 1541908137533
110, -569.34, 14808.86, 0.00, 0.00, -187500.02, -187500.02, -187500.02, -187500.02, 0.000, 0.000, 0.000, 22:48:57.533, 1541908137533
111, -269.58, 15133.05, 0.00, 0.00, -187500.02, -187500.02, -187500.02, -187500.02, 0.000, 0.000, 0.000, 22:48:57.533, 1541908137533
112, -279.31, 15355.40, 0.00, 0.00, -187500.02, -187500.02, -187500.02, -187500.02, 0.000, 0.000, 0.000, 22:48:57.533, 1541908137533
113, -491.00, 15148.09, 0.00, 0.00, -187500.02, -187500.02, -187500.02, -187500.02, 0.000, 0.000, 0.000, 22:48:57.533, 1541908137533
114, -587.45, 14860.24, 0.00, 0.00, -187500.02, -187500.02, -187500.02, -187500.02, 0.000, 0.000, 0.000, 22:48:57.533, 1541908137533
115, -312.72, 15079.92, 0.00, 0.00, -187500.02, -187500.02, -187500.02, -187500.02, 0.106, 0.852, 0.508, 22:48:57.533, 1541908137533
116, -242.14, 15400.06, 0.00, 0.00, -187500.02, -187500.02, -187500.02, -187500.02, 0.000, 0.000, 0.000, 22:48:57.533, 1541908137533
117, -457.99, 15236.16, 0.00, 0.00, -187500.02, -187500.02, -187500.02, -187500.02, 0.000, 0.000, 0.000, 22:48:57.534, 1541908137534
118, -582.80, 14935.57, 0.00, 0.00, -187500.02, -187500.02, -187500.02, -187500.02, 0.000, 0.000, 0.000, 22:48:57.534, 1541908137534
119, -369.23, 15026.65, 0.00, 0.00, -187500.02, -187500.02, -187500.02, -187500.02, 0.000, 0.000, 0.000, 22:48:57.534, 1541908137534
120, -217.86, 15411.37, 0.00, 0.00, -187500.02, -187500.02, -187500.02, -187500.02, 0.000, 0.000, 0.000, 22:48:57.534, 1541908137534
121, -417.71, 15303.77, 0.00, 0.00, -187500.02, -187500.02, -187500.02, -187500.02, 0.000, 0.000, 0.000, 22:48:57.981, 1541908137981
122, -576.25, 15005.84, 0.00, 0.00, -187500.02, -187500.02, -187500.02, -187500.02, 0.000, 0.000, 0.000, 22:48:57.984, 1541908137984
123, -436.42, 14974.98, 0.00, 0.00, -187500.02, -187500.02, -187500.02, -187500.02, 0.000, 0.000, 0.000, 22:48:57.984, 1541908137984
124, -209.17, 15397.29, 0.00, 0.00, -187500.02, -187500.02, -187500.02, -187500.02, 0.000, 0.000, 0.000, 22:48:57.985, 1541908137985
125, -375.15, 15359.74, 0.00, 0.00, -187500.02, -187500.02, -187500.02, -187500.02, 0.108, 0.852, 0.502, 22:48:57.985, 1541908137985
126, -565.32, 15061.23, 0.00, 0.00, -187500.02, -187500.02, -187500.02, -187500.02, 0.000, 0.000, 0.000, 22:48:57.985, 1541908137985
127, -496.48, 14926.14, 0.00, 0.00, -187500.02, -187500.02, -187500.02, -187500.02, 0.000, 0.000, 0.000, 22:48:57.985, 1541908137985
128, -221.53, 15350.13, 0.00, 0.00, -187500.02, -187500.02, -187500.02, -187500.02, 0.000, 0.000, 0.000, 22:48:57.985, 1541908137985
129, -359.17, 15393.11, 0.00, 0.00, -187500.02, -187500.02, -187500.02, -187500.02, 0.000, 0.000, 0.000, 22:48:57.985, 1541908137985
130, -552.20, 15129.09, 0.00, 0.00, -187500.02, -187500.02, -187500.02, -187500.02, 0.000, 0.000, 0.000, 22:48:57.986, 1541908137986
131, -548.87, 14920.86, 0.00, 0.00, -187500.02, -187500.02, -187500.02, -187500.02, 0.000, 0.000, 0.000, 22:48:57.986, 1541908137986
132, -257.02, 15285.67, 0.00, 0.00, -187500.02, -187500.02, -187500.02, -187500.02, 0.000, 0.000, 0.000, 22:48:57.987, 1541908137987
133, -323.05, 15427.00, 0.00, 0.00, -187500.02, -187500.02, -187500.02, -187500.02, 0.000, 0.000, 0.000, 22:48:57.987, 1541908137987
134, -533.07, 15187.03, 0.00, 0.00, -187500.02, -187500.02, -187500.02, -187500.02, 0.000, 0.000, 0.000, 22:48:57.987, 1541908137987
135, -589.10, 14921.96, 0.00, 0.00, -187500.02, -187500.02, -187500.02, -187500.02, 0.104, 0.846, 0.506, 22:48:57.987, 1541908137987
136, -303.89, 15207.08, 0.00, 0.00, -187500.02, -187500.02, -187500.02, -187500.02, 0.000, 0.000, 0.000, 22:48:57.987, 1541908137987
137, -300.70, 15437.81, 0.00, 0.00, -187500.02, -187500.02, -187500.02, -187500.02, 0.000, 0.000, 0.000, 22:48:57.987, 1541908137987
138, -500.68, 15244.58, 0.00, 0.00, -187500.02, -187500.02, -187500.02, -187500.02, 0.000, 0.000, 0.000, 22:48:57.987, 1541908137987
139, -601.57, 14952.96, 0.00, 0.00, -187500.02, -187500.02, -187500.02, -187500.02, 0.000, 0.000, 0.000, 22:48:57.987, 1541908137987
140, -358.32, 15119.70, 0.00, 0.00, -187500.02, -187500.02, -187500.02, -187500.02, 0.000, 0.000, 0.000, 22:48:57.987, 1541908137987
141, -278.26, 15430.37, 0.00, 0.00, -187500.02, -187500.02, -187500.02, -187500.02, 0.000, 0.000, 0.000, 22:48:57.987, 1541908137987
142, -482.55, 15280.50, 0.00, 0.00, -187500.02, -187500.02, -187500.02, -187500.02, 0.000, 0.000, 0.000, 22:48:57.987, 1541908137987
143, -606.94, 14992.23, 0.00, 0.00, -187500.02, -187500.02, -187500.02, -187500.02, 0.000, 0.000, 0.000, 22:48:57.987, 1541908137987
144, -405.51, 15055.24, 0.00, 0.00, -187500.02, -187500.02, -187500.02, -187500.02, 0.000, 0.000, 0.000, 22:48:57.988, 1541908137988
145, -240.01, 15436.92, 0.00, 0.00, -187500.02, -187500.02, -187500.02, -187500.02, 0.110, 0.856, 0.508, 22:48:57.988, 1541908137988
146, -431.93, 15340.85, 0.00, 0.00, -187500.02, -187500.02, -187500.02, -187500.02, 0.000, 0.000, 0.000, 22:48:57.988, 1541908137988
147, -598.20, 15041.32, 0.00, 0.00, -187500.02, -187500.02, -187500.02, -187500.02, 0.000, 0.000, 0.000, 22:48:57.988, 1541908137988
148, -472.69, 14985.97, 0.00, 0.00, -187500.02, -187500.02, -187500.02, -187500.02, 0.000, 0.000, 0.000, 22:48:57.988, 1541908137988
149, -237.69, 15398.85, 0.00, 0.00, -187500.02, -187500.02, -187500.02, -187500.02, 0.000, 0.000, 0.000, 22:48:57.988, 1541908137988
150, -401.82, 15372.72, 0.00, 0.00, -187500.02, -187500.02, -187500.02, -187500.02, 0.000, 0.000, 0.000, 22:48:57.988, 1541908137988
151, -584.74, 15091.18, 0.00, 0.00, -187500.02, -187500.02, -187500.02, -187500.02, 0.000, 0.000, 0.000, 22:48:57.988, 1541908137988
152, -528.22, 14939.66, 0.00, 0.00, -187500.02, -187500.02, -187500.02, -187500.02, 0.000, 0.000, 0.000, 22:48:57.988, 1541908137988
153, -248.04, 15343.80, 0.00, 0.00, -187500.02, -187500.02, -187500.02, -187500.02, 0.000, 0.000, 0.000, 22:48:57.988, 1541908137988
154, -362.37, 15401.98, 0.00, 0.00, -187500.02, -187500.02, -187500.02, -187500.02, 0.118, 0.858, 0.506, 22:48:57.988, 1541908137988
155, -555.57, 15148.58, 0.00, 0.00, -187500.02, -187500.02, -187500.02, -187500.02, 0.000, 0.000, 0.000, 22:48:57.988, 1541908137988
156, -568.18, 14929.15, 0.00, 0.00, -187500.02, -187500.02, -187500.02, -187500.02, 0.000, 0.000, 0.000, 22:48:57.989, 1541908137989
157, -267.93, 15284.28, 0.00, 0.00, -187500.02, -187500.02, -187500.02, -187500.02, 0.000, 0.000, 0.000, 22:48:57.989, 1541908137989
158, -318.40, 15425.83, 0.00, 0.00, -187500.02, -187500.02, -187500.02, -187500.02, 0.000, 0.000, 0.000, 22:48:57.989, 1541908137989
159, -527.72, 15188.21, 0.00, 0.00, -187500.02, -187500.02, -187500.02, -187500.02, 0.000, 0.000, 0.000, 22:48:57.989, 1541908137989
160, -593.39, 14917.40, 0.00, 0.00, -187500.02, -187500.02, -187500.02, -187500.02, 0.000, 0.000, 0.000, 22:48:57.989, 1541908137989
161, -299.00, 15190.27, 0.00, 0.00, -187500.02, -187500.02, -187500.02, -187500.02, 0.000, 0.000, 0.000, 22:48:57.989, 1541908137989
162, -279.98, 15429.83, 0.00, 0.00, -187500.02, -187500.02, -187500.02, -187500.02, 0.000, 0.000, 0.000, 22:48:57.989, 1541908137989
163, -475.02, 15246.35, 0.00, 0.00, -187500.02, -187500.02, -187500.02, -187500.02, 0.000, 0.000, 0.000, 22:48:57.989, 1541908137989
164, -581.66, 14953.23, 0.00, 0.00, -187500.02, -187500.02, -187500.02, -187500.02, 0.110, 0.858, 0.502, 22:48:57.989, 1541908137989
165, -358.34, 15095.03, 0.00, 0.00, -187500.02, -187500.02, -187500.02, -187500.02, 0.000, 0.000, 0.000, 22:48:57.989, 1541908137989
166, -258.05, 15422.88, 0.00, 0.00, -187500.02, -187500.02, -187500.02, -187500.02, 0.000, 0.000, 0.000, 22:48:57.989, 1541908137989
167, -460.80, 15288.30, 0.00, 0.00, -187500.02, -187500.02, -187500.02, -187500.02, 0.000, 0.000, 0.000, 22:48:57.989, 1541908137989
168, -589.04, 15004.12, 0.00, 0.00, -187500.02, -187500.02, -187500.02, -187500.02, 0.000, 0.000, 0.000, 22:48:57.989, 1541908137989
169, -404.03, 15044.53, 0.00, 0.00, -187500.02, -187500.02, -187500.02, -187500.02, 0.000, 0.000, 0.000, 22:48:57.990, 1541908137990
170, -235.79, 15421.81, 0.00, 0.00, -187500.02, -187500.02, -187500.02, -187500.02, 0.000, 0.000, 0.000, 22:48:57.990, 1541908137990
171, -422.05, 15339.40, 0.00, 0.00, -187500.02, -187500.02, -187500.02, -187500.02, 0.000, 0.000, 0.000, 22:48:57.990, 1541908137990
172, -575.11, 15058.55, 0.00, 0.00, -187500.02, -187500.02, -187500.02, -187500.02, 0.000, 0.000, 0.000, 22:48:57.990, 1541908137990
173, -475.11, 14970.97, 0.00, 0.00, -187500.02, -187500.02, -187500.02, -187500.02, 0.000, 0.000, 0.000, 22:48:57.990, 1541908137990
174, -229.42, 15389.04, 0.00, 0.00, -187500.02, -187500.02, -187500.02, -187500.02, 0.110, 0.858, 0.506, 22:48:57.990, 1541908137990
175, -388.43, 15378.36, 0.00, 0.00, -187500.02, -187500.02, -187500.02, -187500.02, 0.000, 0.000, 0.000, 22:48:57.990, 1541908137990
176, -571.74, 15109.73, 0.00, 0.00, -187500.02, -187500.02, -187500.02, -187500.02, 0.000, 0.000, 0.000, 22:48:57.990, 1541908137990
177, -533.69, 14946.95, 0.00, 0.00, -187500.02, -187500.02, -187500.02, -187500.02, 0.000, 0.000, 0.000, 22:48:57.990, 1541908137990
178, -258.68, 15334.70, 0.00, 0.00, -187500.02, -187500.02, -187500.02, -187500.02, 0.000, 0.000, 0.000, 22:48:57.990, 1541908137990
179, -354.97, 15415.75, 0.00, 0.00, -187500.02, -187500.02, -187500.02, -187500.02, 0.000, 0.000, 0.000, 22:48:57.990, 1541908137990
180, -553.32, 15164.27, 0.00, 0.00, -187500.02, -187500.02, -187500.02, -187500.02, 0.000, 0.000, 0.000, 22:48:57.990, 1541908137990
181, -590.80, 14920.15, 0.00, 0.00, -187500.02, -187500.02, -187500.02, -187500.02, 0.000, 0.000, 0.000, 22:48:57.990, 1541908137990
182, -296.43, 15251.24, 0.00, 0.00, -187500.02, -187500.02, -187500.02, -187500.02, 0.000, 0.000, 0.000, 22:48:57.991, 1541908137991
183, -324.57, 15431.35, 0.00, 0.00, -187500.02, -187500.02, -187500.02, -187500.02, 0.000, 0.000, 0.000, 22:48:57.991, 1541908137991
184, -529.31, 15215.59, 0.00, 0.00, -187500.02, -187500.02, -187500.02, -187500.02, 0.112, 0.852, 0.512, 22:48:57.991, 1541908137991
185, -601.80, 14940.80, 0.00, 0.00, -187500.02, -187500.02, -187500.02, -187500.02, 0.000, 0.000, 0.000, 22:48:57.991, 1541908137991
186, -325.46, 15179.72, 0.00, 0.00, -187500.02, -187500.02, -187500.02, -187500.02, 0.000, 0.000, 0.000, 22:48:57.991, 1541908137991
187, -286.88, 15446.24, 0.00, 0.00, -187500.02, -187500.02, -187500.02, -187500.02, 0.000, 0.000, 0.000, 22:48:57.991, 1541908137991
188, -495.52, 15264.07, 0.00, 0.00, -187500.02, -187500.02, -187500.02, -187500.02, 0.000, 0.000, 0.000, 22:48:57.991, 1541908137991
189, -614.70, 14965.68, 0.00, 0.00, -187500.02, -187500.02, -187500.02, -187500.02, 0.000, 0.000, 0.000, 22:48:57.991, 1541908137991
190, -385.32, 15087.02, 0.00, 0.00, -187500.02, -187500.02, -187500.02, -187500.02, 0.000, 0.000, 0.000, 22:48:57.991, 1541908137991
191, -265.09, 15431.44, 0.00, 0.00, -187500.02, -187500.02, -187500.02, -187500.02, 0.000, 0.000, 0.000, 22:48:57.991, 1541908137991
192, -467.37, 15296.10, 0.00, 0.00, -187500.02, -187500.02, -187500.02, -187500.02, 0.000, 0.000, 0.000, 22:48:57.991, 1541908137991
193, -610.07, 15002.29, 0.00, 0.00, -187500.02, -187500.02, -187500.02, -187500.02, 0.116, 0.848, 0.516, 22:48:57.991, 1541908137991
194, -440.20, 15012.01, 0.00, 0.00, -187500.02, -187500.02, -187500.02, -187500.02, 0.000, 0.000, 0.000, 22:48:57.991, 1541908137991
195, -244.46, 15403.73, 0.00, 0.00, -187500.02, -187500.02, -187500.02, -187500.02, 0.000, 0.000, 0.000, 22:48:57.992, 1541908137992
196, -428.26, 15334.57, 0.00, 0.00, -187500.02, -187500.02, -187500.02, -187500.02, 0.000, 0.000, 0.000, 22:48:57.992, 1541908137992
197, -609.80, 15035.26, 0.00, 0.00, -187500.02, -187500.02, -187500.02, -187500.02, 0.000, 0.000, 0.000, 22:48:57.992, 1541908137992
198, -508.03, 14936.87, 0.00, 0.00, -187500.02, -187500.02, -187500.02, -187500.02, 0.000, 0.000, 0.000, 22:48:57.992, 1541908137992
199, -244.24, 15349.57, 0.00, 0.00, -187500.02, -187500.02, -187500.02, -187500.02, 0.000, 0.000, 0.000, 22:48:57.992, 1541908137992
200, -386.93, 15359.81, 0.00, 0.00, -187500.02, -187500.02, -187500.02, -187500.02, 0.000, 0.000, 0.000, 22:48:57.992, 1541908137992
201, -572.96, 15090.24, 0.00, 0.00, -187500.02, -187500.02, -187500.02, -187500.02, 0.000, 0.000, 0.000, 22:48:57.992, 1541908137992
202, -553.03, 14898.40, 0.00, 0.00, -187500.02, -187500.02, -187500.02, -187500.02, 0.000, 0.000, 0.000, 22:48:57.992, 1541908137992
203, -254.50, 15287.23, 0.00, 0.00, -187500.02, -187500.02, -187500.02, -187500.02, 0.108, 0.850, 0.518, 22:48:57.992, 1541908137992
204, -349.40, 15376.73, 0.00, 0.00, -187500.02, -187500.02, -187500.02, -187500.02, 0.000, 0.000, 0.000, 22:48:57.992, 1541908137992
205, -555.57, 15124.04, 0.00, 0.00, -187500.02, -187500.02, -187500.02, -187500.02, 0.000, 0.000, 0.000, 22:48:57.992, 1541908137992
206, -582.42, 14887.04, 0.00, 0.00, -187500.02, -187500.02, -187500.02, -187500.02, 0.000, 0.000, 0.000, 22:48:57.992, 1541908137992
207, -282.77, 15210.47, 0.00, 0.00, -187500.02, -187500.02, -187500.02, -187500.02, 0.000, 0.000, 0.000, 22:48:57.993, 1541908137993
208, -314.73, 15398.03, 0.00, 0.00, -187500.02, -187500.02, -187500.02, -187500.02, 0.000, 0.000, 0.000, 22:48:57.993, 1541908137993
209, -519.66, 15184.23, 0.00, 0.00, -187500.02, -187500.02, -187500.02, -187500.02, 0.000, 0.000, 0.000, 22:48:57.993, 1541908137993
210, -594.42, 14913.04, 0.00, 0.00, -187500.02, -187500.02, -187500.02, -187500.02, 0.000, 0.000, 0.000, 22:48:57.993, 1541908137993
211, -324.70, 15142.84, 0.00, 0.00, -187500.02, -187500.02, -187500.02, -187500.02, 0.000, 0.000, 0.000, 22:48:57.993, 1541908137993
212, -296.21, 15409.36, 0.00, 0.00, -187500.02, -187500.02, -187500.02, -187500.02, 0.000, 0.000, 0.000, 22:48:57.993, 1541908137993
213, -517.24, 15225.52, 0.00, 0.00, -187500.02, -187500.02, -187500.02, -187500.02, 0.108, 0.848, 0.516, 22:48:57.993, 1541908137993
214, -651.93, 14920.35, 0.00, 0.00, -187500.02, -187500.02, -187500.02, -187500.02, 0.000, 0.000, 0.000, 22:48:57.993, 1541908137993
215, -443.39, 15017.35, 0.00, 0.00, -187500.02, -187500.02, -187500.02, -187500.02, 0.000, 0.000, 0.000, 22:48:57.993, 1541908137993
216, -312.61, 15371.50, 0.00, 0.00, -187500.02, -187500.02, -187500.02, -187500.02, 0.000, 0.000, 0.000, 22:48:57.993, 1541908137993
217, -516.64, 15249.63, 0.00, 0.00, -187500.02, -187500.02, -187500.02, -187500.02, 0.000, 0.000, 0.000, 22:48:57.993, 1541908137993
218, -666.06, 14957.29, 0.00, 0.00, -187500.02, -187500.02, -187500.02, -187500.02, 0.000, 0.000, 0.000, 22:48:57.993, 1541908137993
219, -506.71, 14942.90, 0.00, 0.00, -187500.02, -187500.02, -187500.02, -187500.02, 0.000, 0.000, 0.000, 22:48:57.994, 1541908137994
220, -295.42, 15344.20, 0.00, 0.00, -187500.02, -187500.02, -187500.02, -187500.02, 0.000, 0.000, 0.000, 22:48:57.994, 1541908137994
221, -473.21, 15293.69, 0.00, 0.00, -187500.02, -187500.02, -187500.02, -187500.02, 0.000, 0.000, 0.000, 22:48:57.994, 1541908137994
222, -652.85, 15005.11, 0.00, 0.00, -187500.02, -187500.02, -187500.02, -187500.02, 0.000, 0.000, 0.000, 22:48:57.994, 1541908137994
223, -569.66, 14892.21, 0.00, 0.00, -187500.02, -187500.02, -187500.02, -187500.02, 0.114, 0.848, 0.522, 22:48:57.994, 1541908137994
224, -296.88, 15310.27, 0.00, 0.00, -187500.02, -187500.02, -187500.02, -187500.02, 0.000, 0.000, 0.000, 22:48:57.994, 1541908137994
225, -428.35, 15332.87, 0.00, 0.00, -187500.02, -187500.02, -187500.02, -187500.02, 0.000, 0.000, 0.000, 22:48:57.994, 1541908137994
226, -615.48, 15064.67, 0.00, 0.00, -187500.02, -187500.02, -187500.02, -187500.02, 0.000, 0.000, 0.000, 22:48:57.994, 1541908137994
227, -609.96, 14862.32, 0.00, 0.00, -187500.02, -187500.02, -187500.02, -187500.02, 0.000, 0.000, 0.000, 22:48:57.994, 1541908137994
228, -314.29, 15245.66, 0.00, 0.00, -187500.02, -187500.02, -187500.02, -187500.02, 0.000, 0.000, 0.000, 22:48:57.994, 1541908137994
229, -389.95, 15367.74, 0.00, 0.00, -187500.02, -187500.02, -187500.02, -187500.02, 0.000, 0.000, 0.000, 22:48:57.994, 1541908137994
230, -591.27, 15123.95, 0.00, 0.00, -187500.02, -187500.02, -187500.02, -187500.02, 0.000, 0.000, 0.000, 22:48:57.995, 1541908137995
231, -638.41, 14860.85, 0.00, 0.00, -187500.02, -187500.02, -187500.02, -187500.02, 0.000, 0.000, 0.000, 22:48:57.995, 1541908137995
232, -339.77, 15166.33, 0.00, 0.00, -187500.02, -187500.02, -187500.02, -187500.02, 0.000, 0.000, 0.000, 22:48:57.995, 1541908137995
233, -344.71, 15378.51, 0.00, 0.00, -187500.02, -187500.02, -187500.02, -187500.02, 0.114, 0.854, 0.518, 22:48:57.995, 1541908137995
234, -551.40, 15171.72, 0.00, 0.00, -187500.02, -187500.02, -187500.02, -187500.02, 0.000, 0.000, 0.000, 22:48:57.995, 1541908137995
235, -648.18, 14883.91, 0.00, 0.00, -187500.02, -187500.02, -187500.02, -187500.02, 0.000, 0.000, 0.000, 22:48:57.995, 1541908137995
236, -381.07, 15090.65, 0.00, 0.00, -187500.02, -187500.02, -187500.02, -187500.02, 0.000, 0.000, 0.000, 22:48:57.995, 1541908137995
237, -307.90, 15390.81, 0.00, 0.00, -187500.02, -187500.02, -187500.02, -187500.02, 0.000, 0.000, 0.000, 22:48:57.995, 1541908137995
238, -516.91, 15223.28, 0.00, 0.00, -187500.02, -187500.02, -187500.02, -187500.02, 0.000, 0.000, 0.000, 22:48:57.995, 1541908137995
239, -646.61, 14925.29, 0.00, 0.00, -187500.02, -187500.02, -187500.02, -187500.02, 0.000, 0.000, 0.000, 22:48:57.995, 1541908137995
240, -444.04, 15000.77, 0.00, 0.00, -187500.02, -187500.02, -187500.02, -187500.02, 0.000, 0.000, 0.000, 22:48:57.995, 1541908137995
241, -288.83, 15378.18, 0.00, 0.00, -187500.02, -187500.02, -187500.02, -187500.02, 0.000, 0.000, 0.000, 22:48:58.459, 1541908138459
242, -465.34, 15288.73, 0.00, 0.00, -187500.02, -187500.02, -187500.02, -187500.02, 0.110, 0.856, 0.512, 22:48:58.460, 1541908138460
243, -618.72, 14993.19, 0.00, 0.00, -187500.02, -187500.02, -187500.02, -187500.02, 0.000, 0.000, 0.000, 22:48:58.461, 1541908138461
244, -490.84, 14950.43, 0.00, 0.00, -187500.02, -187500.02, -187500.02, -187500.02, 0.000, 0.000, 0.000, 22:48:58.461, 1541908138461
245, -270.05, 15366.80, 0.00, 0.00, -187500.02, -187500.02, -187500.02, -187500.02, 0.000, 0.000, 0.000, 22:48:58.462, 1541908138462
246, -439.19, 15326.37, 0.00, 0.00, -187500.02, -187500.02, -187500.02, -187500.02, 0.000, 0.000, 0.000, 22:48:58.462, 1541908138462
247, -620.15, 15030.74, 0.00, 0.00, -187500.02, -187500.02, -187500.02, -187500.02, 0.000, 0.000, 0.000, 22:48:58.462, 1541908138462
248, -559.44, 14883.65, 0.00, 0.00, -187500.02, -187500.02, -187500.02, -187500.02, 0.000, 0.000, 0.000, 22:48:58.462, 1541908138462
249, -283.87, 15297.76, 0.00, 0.00, -187500.02, -187500.02, -187500.02, -187500.02, 0.000, 0.000, 0.000, 22:48:58.462, 1541908138462
250, -405.28, 15343.73, 0.00, 0.00, -187500.02, -187500.02, -187500.02, -187500.02, 0.000, 0.000, 0.000, 22:48:58.463, 1541908138463
251, -597.86, 15083.60, 0.00, 0.00, -187500.02, -187500.02, -187500.02, -187500.02, 0.000, 0.000, 0.000, 22:48:58.463, 1541908138463
252, -597.84, 14868.80, 0.00, 0.00, -187500.02, -187500.02, -187500.02, -187500.02, 0.112, 0.850, 0.512, 22:48:58.463, 1541908138463
253, -302.66, 15233.74, 0.00, 0.00, -187500.02, -187500.02, -187500.02, -187500.02, 0.000, 0.000, 0.000, 22:48:58.463, 1541908138463
254, -367.06, 15371.47, 0.00, 0.00, -187500.02, -187500.02, -187500.02, -187500.02, 0.000, 0.000, 0.000, 22:48:58.463, 1541908138463
255, -573.12, 15131.04, 0.00, 0.00, -187500.02, -187500.02, -187500.02, -187500.02, 0.000, 0.000, 0.000, 22:48:58.463, 1541908138463
0, -634.88, 14863.15, 0.00, 0.00, -187500.02, -187500.02, -187500.02, -187500.02, 0.000, 0.000, 0.000, 22:48:58.463, 1541908138463
1, -353.09, 15143.44, 0.00, 0.00, -187500.02, -187500.02, -187500.02, -187500.02, 0.000, 0.000, 0.000, 22:48:58.463, 1541908138463
2, -334.20, 15381.55, 0.00, 0.00, -187500.02, -187500.02, -187500.02, -187500.02, 0.000, 0.000, 0.000, 22:48:58.463, 1541908138463
3, -542.23, 15183.25, 0.00, 0.00, -187500.02, -187500.02, -187500.02, -187500.02, 0.000, 0.000, 0.000, 22:48:58.463, 1541908138463
4, -650.97, 14884.90, 0.00, 0.00, -187500.02, -187500.02, -187500.02, -187500.02, 0.000, 0.000, 0.000, 22:48:58.463, 1541908138463
5, -398.44, 15060.43, 0.00, 0.00, -187500.02, -187500.02, -187500.02, -187500.02, 0.000, 0.000, 0.000, 22:48:58.464, 1541908138464
6, -308.72, 15383.63, 0.00, 0.00, -187500.02, -187500.02, -187500.02, -187500.02, 0.114, 0.852, 0.504, 22:48:58.464, 1541908138464
7, -527.08, 15216.02, 0.00, 0.00, -187500.02, -187500.02, -187500.02, -187500.02, 0.000, 0.000, 0.000, 22:48:58.464, 1541908138464
8, -655.44, 14917.64, 0.00, 0.00, -187500.02, -187500.02, -187500.02, -187500.02, 0.000, 0.000, 0.000, 22:48:58.464, 1541908138464
9, -458.21, 14981.05, 0.00, 0.00, -187500.02, -187500.02, -187500.02, -187500.02, 0.000, 0.000, 0.000, 22:48:58.464, 1541908138464
10, -296.34, 15366.67, 0.00, 0.00, -187500.02, -187500.02, -187500.02, -187500.02, 0.000, 0.000, 0.000, 22:48:58.464, 1541908138464
11, -492.03, 15262.96, 0.00, 0.00, -187500.02, -187500.02, -187500.02, -187500.02, 0.000, 0.000, 0.000, 22:48:58.464, 1541908138464
12, -658.91, 14958.17, 0.00, 0.00, -187500.02, -187500.02, -187500.02, -187500.02, 0.000, 0.000, 0.000, 22:48:58.464, 1541908138464
13, -529.60, 14902.85, 0.00, 0.00, -187500.02, -187500.02, -187500.02, -187500.02, 0.000, 0.000, 0.000, 22:48:58.464, 1541908138464
14, -300.03, 15303.97, 0.00, 0.00, -187500.02, -187500.02, -187500.02, -187500.02, 0.000, 0.000, 0.000, 22:48:58.464, 1541908138464
15, -470.33, 15263.85, 0.00, 0.00, -187500.02, -187500.02, -187500.02, -187500.02, 0.000, 0.000, 0.000, 22:48:58.466, 1541908138466
16, -646.57, 14984.92, 0.00, 0.00, -187500.02, -187500.02, -187500.02, -187500.02, 0.116, 0.854, 0.510, 22:48:58.466, 1541908138466
17, -590.62, 14833.20, 0.00, 0.00, -187500.02, -187500.02, -187500.02, -187500.02, 0.000, 0.000, 0.000, 22:48:58.467, 1541908138467
18, -301.57, 15251.40, 0.00, 0.00, -187500.02, -187500.02, -187500.02, -187500.02, 0.000, 0.000, 0.000, 22:48:58.467, 1541908138467
19, -420.03, 15313.31, 0.00, 0.00, -187500.02, -187500.02, -187500.02, -187500.02, 0.000, 0.000, 0.000, 22:48:58.467, 1541908138467
20, -626.47, 15033.92, 0.00, 0.00, -187500.02, -187500.02, -187500.02, -187500.02, 0.000, 0.000, 0.000, 22:48:58.468, 1541908138468
21, -627.59, 14802.84, 0.00, 0.00, -187500.02, -187500.02, -187500.02, -187500.02, 0.000, 0.000, 0.000, 22:48:58.470, 1541908138470
22, -316.79, 15172.86, 0.00, 0.00, -187500.02, -187500.02, -187500.02, -187500.02, 0.000, 0.000, 0.000, 22:48:58.470, 1541908138470
23, -381.07, 15319.55, 0.00, 0.00, -187500.02, -187500.02, -187500.02, -187500.02, 0.000, 0.000, 0.000, 22:48:58.471, 1541908138471
24, -591.25, 15085.77, 0.00, 0.00, -187500.02, -187500.02, -187500.02, -187500.02, 0.000, 0.000, 0.000, 22:48:58.471, 1541908138471
25, -664.52, 14803.07, 0.00, 0.00, -187500.02, -187500.02, -187500.02, -187500.02, 0.112, 0.860, 0.506, 22:48:58.472, 1541908138472
26, -373.97, 15081.10, 0.00, 0.00, -187500.02, -187500.02, -187500.02, -187500.02, 0.000, 0.000, 0.000, 22:48:58.472, 1541908138472
27, -341.78, 15347.31, 0.00, 0.00, -187500.02, -187500.02, -187500.02, -187500.02, 0.000, 0.000, 0.000, 22:48:58.472, 1541908138472
28, -541.52, 15151.87, 0.00, 0.00, -187500.02, -187500.02, -187500.02, -187500.02, 0.000, 0.000, 0.000, 22:48:58.472, 1541908138472
29, -640.85, 14860.00, 0.00, 0.00, -187500.02, -187500.02, -187500.02, -187500.02, 0.000, 0.000, 0.000, 22:48:58.472, 1541908138472
30, -397.21, 15015.52, 0.00, 0.00, -187500.02, -187500.02, -187500.02, -187500.02, 0.000, 0.000, 0.000, 22:48:58.472, 1541908138472
31, -292.67, 15354.89, 0.00, 0.00, -187500.02, -187500.02, -187500.02, -187500.02, 0.000, 0.000, 0.000, 22:48:58.472, 1541908138472
32, -502.44, 15203.16, 0.00, 0.00, -187500.02, -187500.02, -187500.02, -187500.02, 0.000, 0.000, 0.000, 22:48:58.477, 1541908138477
33, -655.38, 14885.90, 0.00, 0.00, -187500.02, -187500.02, -187500.02, -187500.02, 0.000, 0.000, 0.000, 22:48:58.477, 1541908138477
34, -478.82, 14906.69, 0.00, 0.00, -187500.02, -187500.02, -187500.02, -187500.02, 0.000, 0.000, 0.000, 22:48:58.478, 1541908138478
35, -288.47, 15304.60, 0.00, 0.00, -187500.02, -187500.02, -187500.02, -187500.02, 0.114, 0.860, 0.502, 22:48:58.478, 1541908138478
36, -486.17, 15217.16, 0.00, 0.00, -187500.02, -187500.02, -187500.02, -187500.02, 0.000, 0.000, 0.000, 22:48:58.478, 1541908138478
37, -663.20, 14921.51, 0.00, 0.00, -187500.02, -187500.02, -187500.02, -187500.02, 0.000, 0.000, 0.000, 22:48:58.478, 1541908138478
38, -546.86, 14847.97, 0.00, 0.00, -187500.02, -187500.02, -187500.02, -187500.02, 0.000, 0.000, 0.000, 22:48:58.478, 1541908138478
39, -291.38, 15277.77, 0.00, 0.00, -187500.02, -187500.02, -187500.02, -187500.02, 0.000, 0.000, 0.000, 22:48:58.478, 1541908138478
40, -451.68, 15271.96, 0.00, 0.00, -187500.02, -187500.02, -187500.02, -187500.02, 0.000, 0.000, 0.000, 22:48:58.479, 1541908138479
41, -648.51, 14979.45, 0.00, 0.00, -187500.02, -187500.02, -187500.02, -187500.02, 0.000, 0.000, 0.000, 22:48:58.479, 1541908138479
42, -609.44, 14798.91, 0.00, 0.00, -187500.02, -187500.02, -187500.02, -187500.02, 0.000, 0.000, 0.000, 22:48:58.480, 1541908138480
43, -298.44, 15226.99, 0.00, 0.00, -187500.02, -187500.02, -187500.02, -187500.02, 0.000, 0.000, 0.000, 22:48:58.480, 1541908138480
44, -403.05, 15313.54, 0.00, 0.00, -187500.02, -187500.02, -187500.02, -187500.02, 0.000, 0.000, 0.000, 22:48:58.480, 1541908138480
45, -614.09, 15041.32, 0.00, 0.00, -187500.02, -187500.02, -187500.02, -187500.02, 0.114, 0.852, 0.504, 22:48:58.480, 1541908138480
46, -652.34, 14777.97, 0.00, 0.00, -187500.02, -187500.02, -187500.02, -187500.02, 0.000, 0.000, 0.000, 22:48:58.481, 1541908138481
47, -345.47, 15126.18, 0.00, 0.00, -187500.02, -187500.02, -187500.02, -187500.02, 0.000, 0.000, 0.000, 22:48:58.481, 1541908138481
48, -383.15, 15305.29, 0.00, 0.00, -187500.02, -187500.02, -187500.02, -187500.02, 0.000, 0.000, 0.000, 22:48:58.481, 1541908138481
49, -593.57, 15071.02, 0.00, 0.00, -187500.02, -187500.02, -187500.02, -187500.02, 0.000, 0.000, 0.000, 22:48:58.481, 1541908138481
50, -666.10, 14784.07, 0.00, 0.00, -187500.02, -187500.02, -187500.02, -187500.02, 0.000, 0.000, 0.000, 22:48:58.481, 1541908138481
51, -372.20, 15048.09, 0.00, 0.00, -187500.02, -187500.02, -187500.02, -187500.02, 0.000, 0.000, 0.000, 22:48:58.481, 1541908138481
52, -340.53, 15316.44, 0.00, 0.00, -187500.02, -187500.02, -187500.02, -187500.02, 0.000, 0.000, 0.000, 22:48:58.481, 1541908138481
53, -574.02, 15109.69, 0.00, 0.00, -187500.02, -187500.02, -187500.02, -187500.02, 0.000, 0.000, 0.000, 22:48:58.481, 1541908138481
54, -704.48, 14790.39, 0.00, 0.00, -187500.02, -187500.02, -187500.02, -187500.02, 0.000, 0.000, 0.000, 22:48:58.482, 1541908138482
55, -439.30, 14946.32, 0.00, 0.00, -187500.02, -187500.02, -187500.02, -187500.02, 0.110, 0.844, 0.506, 22:48:58.482, 1541908138482
56, -310.44, 15309.22, 0.00, 0.00, -187500.02, -187500.02, -187500.02, -187500.02, 0.000, 0.000, 0.000, 22:48:58.483, 1541908138483
57, -523.95, 15157.01, 0.00, 0.00, -187500.02, -187500.02, -187500.02, -187500.02, 0.000, 0.000, 0.000, 22:48:58.483, 1541908138483
58, -674.17, 14842.70, 0.00, 0.00, -187500.02, -187500.02, -187500.02, -187500.02, 0.000, 0.000, 0.000, 22:48:58.483, 1541908138483
59, -511.09, 14857.11, 0.00, 0.00, -187500.02, -187500.02, -187500.02, -187500.02, 0.000, 0.000, 0.000, 22:48:58.483, 1541908138483
60, -310.20, 15285.98, 0.00, 0.00, -187500.02, -187500.02, -187500.02, -187500.02, 0.000, 0.000, 0.000, 22:48:58.483, 1541908138483
61, -495.45, 15229.41, 0.00, 0.00, -187500.02, -187500.02, -187500.02, -187500.02, 0.000, 0.000, 0.000, 22:48:58.483, 1541908138483
62, -674.93, 14930.76, 0.00, 0.00, -187500.02, -187500.02, -187500.02, -187500.02, 0.000, 0.000, 0.000, 22:48:58.483, 1541908138483
63, -572.20, 14837.89, 0.00, 0.00, -187500.02, -187500.02, -187500.02, -187500.02, 0.000, 0.000, 0.000, 22:48:58.483, 1541908138483
64, -301.10, 15278.60, 0.00, 0.00, -187500.02, -187500.02, -187500.02, -187500.02, 0.000, 0.000, 0.000, 22:48:58.483, 1541908138483
65, -456.74, 15277.84, 0.00, 0.00, -187500.02, -187500.02, -187500.02, -187500.02, 0.118, 0.846, 0.504, 22:48:58.483, 1541908138483
66, -661.66, 14990.82, 0.00, 0.00, -187500.02, -187500.02, -187500.02, -187500.02, 0.000, 0.000, 0.000, 22:48:58.484, 1541908138484
67, -622.09, 14816.72, 0.00, 0.00, -187500.02, -187500.02, -187500.02, -187500.02, 0.000, 0.000, 0.000, 22:48:58.484, 1541908138484
68, -309.28, 15239.44, 0.00, 0.00, -187500.02, -187500.02, -187500.02, -187500.02, 0.000, 0.000, 0.000, 22:48:58.484, 1541908138484
69, -417.80, 15329.52, 0.00, 0.00, -187500.02, -187500.02, -187500.02, -187500.02, 0.000, 0.000, 0.000, 22:48:58.484, 1541908138484
70, -641.09, 15056.02, 0.00, 0.00, -187500.02, -187500.02, -187500.02, -187500.02, 0.000, 0.000, 0.000, 22:48:58.484, 1541908138484
71, -665.32, 14803.85, 0.00, 0.00, -187500.02, -187500.02, -187500.02, -187500.02, 0.000, 0.000, 0.000, 22:48:58.484, 1541908138484
72, -340.35, 15148.36, 0.00, 0.00, -187500.02, -187500.02, -187500.02, -187500.02, 0.000, 0.000, 0.000, 22:48:58.485, 1541908138485
73, -369.00, 15328.78, 0.00, 0.00, -187500.02, -187500.02, -187500.02, -187500.02, 0.000, 0.000, 0.000, 22:48:58.485, 1541908138485
74, -597.48, 15086.24, 0.00, 0.00, -187500.02, -187500.02, -187500.02, -187500.02, 0.122, 0.852, 0.496, 22:48:58.485, 1541908138485
75, -666.82, 14806.58, 0.00, 0.00, -187500.02, -187500.02, -187500.02, -187500.02, 0.000, 0.000, 0.000, 22:48:58.486, 1541908138486
76, -378.01, 15045.70, 0.00, 0.00, -187500.02, -187500.02, -187500.02, -187500.02, 0.000, 0.000, 0.000, 22:48:58.486, 1541908138486
77, -331.23, 15320.87, 0.00, 0.00, -187500.02, -187500.02, -187500.02, -187500.02, 0.000, 0.000, 0.000, 22:48:58.486, 1541908138486
78, -548.78, 15131.37, 0.00, 0.00, -187500.02, -187500.02, -187500.02, -187500.02, 0.000, 0.000, 0.000, 22:48:58.486, 1541908138486
79, -681.97, 14813.69, 0.00, 0.00, -187500.02, -187500.02, -187500.02, -187500.02, 0.000, 0.000, 0.000, 22:48:58.486, 1541908138486
80, -450.10, 14923.32, 0.00, 0.00, -187500.02, -187500.02, -187500.02, -187500.02, 0.000, 0.000, 0.000, 22:48:58.487, 1541908138487
81, -317.89, 15288.35, 0.00, 0.00, -187500.02, -187500.02, -187500.02, -187500.02, 0.000, 0.000, 0.000, 22:48:58.487, 1541908138487
82, -518.92, 15165.70, 0.00, 0.00, -187500.02, -187500.02, -187500.02, -187500.02, 0.000, 0.000, 0.000, 22:48:58.487, 1541908138487
83, -645.83, 14865.92, 0.00, 0.00, -187500.02, -187500.02, -187500.02, -187500.02, 0.000, 0.000, 0.000, 22:48:58.487, 1541908138487
84, -492.14, 14840.49, 0.00, 0.00, -187500.02, -187500.02, -187500.02, -187500.02, 0.122, 0.856, 0.496, 22:48:58.487, 1541908138487
85, -265.58, 15267.43, 0.00, 0.00, -187500.02, -187500.02, -187500.02, -187500.02, 0.000, 0.000, 0.000, 22:48:58.487, 1541908138487
86, -440.44, 15209.71, 0.00, 0.00, -187500.02, -187500.02, -187500.02, -187500.02, 0.000, 0.000, 0.000, 22:48:58.487, 1541908138487
87, -618.54, 14904.19, 0.00, 0.00, -187500.02, -187500.02, -187500.02, -187500.02, 0.000, 0.000, 0.000, 22:48:58.487, 1541908138487
88, -531.70, 14779.71, 0.00, 0.00, -187500.02, -187500.02, -187500.02, -187500.02, 0.000, 0.000, 0.000, 22:48:58.487, 1541908138487
89, -234.18, 15226.75, 0.00, 0.00, -187500.02, -187500.02, -187500.02, -187500.02, 0.000, 0.000, 0.000, 22:48:58.487, 1541908138487
90, -379.06, 15242.57, 0.00, 0.00, -187500.02, -187500.02, -187500.02, -187500.02, 0.000, 0.000, 0.000, 22:48:58.487, 1541908138487
91, -597.48, 14944.02, 0.00, 0.00, -187500.02, -187500.02, -187500.02, -187500.02, 0.000, 0.000, 0.000, 22:48:58.488, 1541908138488
92, -581.68, 14743.97, 0.00, 0.00, -187500.02, -187500.02, -187500.02, -187500.02, 0.000, 0.000, 0.000, 22:48:58.488, 1541908138488
93, -258.99, 15159.71, 0.00, 0.00, -187500.02, -187500.02, -187500.02, -187500.02, 0.000, 0.000, 0.000, 22:48:58.488, 1541908138488
94, -352.93, 15267.36, 0.00, 0.00, -187500.02, -187500.02, -187500.02, -187500.02, 0.118, 0.862, 0.500, 22:48:58.488, 1541908138488
95, -549.70, 15028.11, 0.00, 0.00, -187500.02, -187500.02, -187500.02, -187500.02, 0.000, 0.000, 0.000, 22:48:58.488, 1541908138488
96, -598.56, 14759.06, 0.00, 0.00, -187500.02, -187500.02, -187500.02, -187500.02, 0.000, 0.000, 0.000, 22:48:58.488, 1541908138488
97, -296.38, 15077.84, 0.00, 0.00, -187500.02, -187500.02, -187500.02, -187500.02, 0.000, 0.000, 0.000, 22:48:58.488, 1541908138488
98, -306.67, 15298.43, 0.00, 0.00, -187500.02, -187500.02, -187500.02, -187500.02, 0.000, 0.000, 0.000, 22:48:58.488, 1541908138488
99, -527.88, 15072.76, 0.00, 0.00, -187500.02, -187500.02, -187500.02, -187500.02, 0.000, 0.000, 0.000, 22:48:58.488, 1541908138488
100, -619.28, 14766.59, 0.00, 0.00, -187500.02, -187500.02, -187500.02, -187500.02, 0.000, 0.000, 0.000, 22:48:58.490, 1541908138490
101, -331.23, 15002.51, 0.00, 0.00, -187500.02, -187500.02, -187500.02, -187500.02, 0.000, 0.000, 0.000, 22:48:58.491, 1541908138491
102, -266.84, 15311.59, 0.00, 0.00, -187500.02, -187500.02, -187500.02, -187500.02, 0.000, 0.000, 0.000, 22:48:58.492, 1541908138492
103, -490.75, 15128.80, 0.00, 0.00, -187500.02, -187500.02, -187500.02, -187500.02, 0.000, 0.000, 0.000, 22:48:58.492, 1541908138492
104, -622.21, 14814.27, 0.00, 0.00, -187500.02, -187500.02, -187500.02, -187500.02, 0.110, 0.856, 0.502, 22:48:58.492, 1541908138492
105, -407.94, 14901.19, 0.00, 0.00, -187500.02, -187500.02, -187500.02, -187500.02, 0.000, 0.000, 0.000, 22:48:58.536, 1541908138536
106, -257.87, 15281.24, 0.00, 0.00, -187500.02, -187500.02, -187500.02, -187500.02, 0.000, 0.000, 0.000, 22:48:58.536, 1541908138536
107, -452.04, 15176.90, 0.00, 0.00, -187500.02, -187500.02, -187500.02, -187500.02, 0.000, 0.000, 0.000, 22:48:58.537, 1541908138537
108, -603.27, 14878.28, 0.00, 0.00, -187500.02, -187500.02, -187500.02, -187500.02, 0.000, 0.000, 0.000, 22:48:58.537, 1541908138537
109, -463.66, 14841.69, 0.00, 0.00, -187500.02, -187500.02, -187500.02, -187500.02, 0.000, 0.000, 0.000, 22:48:58.537, 1541908138537
110, -224.05, 15278.89, 0.00, 0.00, -187500.02, -187500.02, -187500.02, -187500.02, 0.000, 0.000, 0.000, 22:48:58.538, 1541908138538
111, -392.47, 15244.76, 0.00, 0.00, -187500.02, -187500.02, -187500.02, -187500.02, 0.000, 0.000, 0.000, 22:48:58.538, 1541908138538
112, -589.24, 14936.91, 0.00, 0.00, -187500.02, -187500.02, -187500.02, -187500.02, 0.000, 0.000, 0.000, 22:48:58.538, 1541908138538
113, -517.69, 14793.86, 0.00, 0.00, -187500.02, -187500.02, -187500.02, -187500.02, 0.114, 0.854, 0.506, 22:48:58.539, 1541908138539
114, -229.62, 15225.63, 0.00, 0.00, -187500.02, -187500.02, -187500.02, -187500.02, 0.000, 0.000, 0.000, 22:48:58.540, 1541908138540
115, -363.13, 15263.96, 0.00, 0.00, -187500.02, -187500.02, -187500.02, -187500.02, 0.000, 0.000, 0.000, 22:48:58.540, 1541908138540
116, -578.13, 14978.46, 0.00, 0.00, -187500.02, -187500.02, -187500.02, -187500.02, 0.000, 0.000, 0.000, 22:48:58.540, 1541908138540
117, -566.68, 14770.90, 0.00, 0.00, -187500.02, -187500.02, -187500.02, -187500.02, 0.000, 0.000, 0.000, 22:48:58.540, 1541908138540
118, -238.54, 15169.46, 0.00, 0.00, -187500.02, -187500.02, -187500.02, -187500.02, 0.000, 0.000, 0.000, 22:48:58.540, 1541908138540
119, -319.38, 15302.03, 0.00, 0.00, -187500.02, -187500.02, -187500.02, -187500.02, 0.000, 0.000, 0.000, 22:48:58.540, 1541908138540
120, -554.86, 15034.86, 0.00, 0.00, -187500.02, -187500.02, -187500.02, -187500.02, 0.000, 0.000, 0.000, 22:48:58.540, 1541908138540
0, 0.00, 0.00, 0.00, 0.00, 0.00, 0.00, 0.00, 0.00, 0.114, 0.850, 0.504, 22:48:58.551, 1541908138551
1, -489.70, 15145.94, 0.00, 0.00, -187500.02, -187500.02, -187500.02, -187500.02, 0.000, 0.000, 0.000, 22:48:59.029, 1541908139029
2, -627.57, 14825.22, 0.00, 0.00, -187500.02, -187500.02, -187500.02, -187500.02, 0.000, 0.000, 0.000, 22:48:59.029, 1541908139029
3, -394.20, 14951.06, 0.00, 0.00, -187500.02, -187500.02, -187500.02, -187500.02, 0.000, 0.000, 0.000, 22:48:59.030, 1541908139030
4, -257.63, 15331.82, 0.00, 0.00, -187500.02, -187500.02, -187500.02, -187500.02, 0.000, 0.000, 0.000, 22:48:59.030, 1541908139030
5, -459.22, 15204.53, 0.00, 0.00, -187500.02, -187500.02, -187500.02, -187500.02, 0.000, 0.000, 0.000, 22:48:59.030, 1541908139030
6, -620.26, 14878.86, 0.00, 0.00, -187500.02, -187500.02, -187500.02, -187500.02, 0.120, 0.848, 0.504, 22:48:59.030, 1541908139030
7, -458.84, 14872.58, 0.00, 0.00, -187500.02, -187500.02, -187500.02, -187500.02, 0.000, 0.000, 0.000, 22:48:59.031, 1541908139031
8, -242.00, 15301.20, 0.00, 0.00, -187500.02, -187500.02, -187500.02, -187500.02, 0.000, 0.000, 0.000, 22:48:59.031, 1541908139031
9, -425.71, 15238.88, 0.00, 0.00, -187500.02, -187500.02, -187500.02, -187500.02, 0.000, 0.000, 0.000, 22:48:59.036, 1541908139036
10, -609.33, 14932.82, 0.00, 0.00, -187500.02, -187500.02, -187500.02, -187500.02, 0.000, 0.000, 0.000, 22:48:59.037, 1541908139037
11, -515.19, 14823.99, 0.00, 0.00, -187500.02, -187500.02, -187500.02, -187500.02, 0.000, 0.000, 0.000, 22:48:59.037, 1541908139037
12, -242.87, 15258.53, 0.00, 0.00, -187500.02, -187500.02, -187500.02, -187500.02, 0.000, 0.000, 0.000, 22:48:59.039, 1541908139039
13, -392.38, 15272.01, 0.00, 0.00, -187500.02, -187500.02, -187500.02, -187500.02, 0.000, 0.000, 0.000, 22:48:59.039, 1541908139039
14, -595.03, 14982.15, 0.00, 0.00, -187500.02, -187500.02, -187500.02, -187500.02, 0.000, 0.000, 0.000, 22:48:59.040, 1541908139040
15, -587.36, 14772.20, 0.00, 0.00, -187500.02, -187500.02, -187500.02, -187500.02, 0.000, 0.000, 0.000, 22:48:59.040, 1541908139040
16, -282.88, 15177.39, 0.00, 0.00, -187500.02, -187500.02, -187500.02, -187500.02, 0.122, 0.848, 0.500, 22:48:59.040, 1541908139040
17, -354.57, 15300.62, 0.00, 0.00, -187500.02, -187500.02, -187500.02, -187500.02, 0.000, 0.000, 0.000, 22:48:59.040, 1541908139040
18, -559.37, 15051.04, 0.00, 0.00, -187500.02, -187500.02, -187500.02, -187500.02, 0.000, 0.000, 0.000, 22:48:59.041, 1541908139041
19, -609.51, 14780.78, 0.00, 0.00, -187500.02, -187500.02, -187500.02, -187500.02, 0.000, 0.000, 0.000, 22:48:59.041, 1541908139041
20, -298.49, 15113.15, 0.00, 0.00, -187500.02, -187500.02, -187500.02, -187500.02, 0.000, 0.000, 0.000, 22:48:59.041, 1541908139041
21, -315.03, 15321.63, 0.00, 0.00, -187500.02, -187500.02, -187500.02, -187500.02, 0.000, 0.000, 0.000, 22:48:59.042, 1541908139042
22, -537.09, 15095.70, 0.00, 0.00, -187500.02, -187500.02, -187500.02, -187500.02, 0.000, 0.000, 0.000, 22:48:59.042, 1541908139042
23, -638.16, 14793.61, 0.00, 0.00, -187500.02, -187500.02, -187500.02, -187500.02, 0.000, 0.000, 0.000, 22:48:59.042, 1541908139042
24, -348.24, 15025.27, 0.00, 0.00, -187500.02, -187500.02, -187500.02, -187500.02, 0.000, 0.000, 0.000, 22:48:59.043, 1541908139043
25, -268.71, 15340.18, 0.00, 0.00, -187500.02, -187500.02, -187500.02, -187500.02, 0.000, 0.000, 0.000, 22:48:59.043, 1541908139043
26, -497.44, 15157.12, 0.00, 0.00, -187500.02, -187500.02, -187500.02, -187500.02, 0.116, 0.850, 0.506, 22:48:59.044, 1541908139044
27, -640.69, 14837.89, 0.00, 0.00, -187500.02, -187500.02, -187500.02, -187500.02, 0.000, 0.000, 0.000, 22:48:59.044, 1541908139044
28, -415.85, 14935.73, 0.00, 0.00, -187500.02, -187500.02, -187500.02, -187500.02, 0.000, 0.000, 0.000, 22:48:59.045, 1541908139045
29, -266.68, 15309.74, 0.00, 0.00, -187500.02, -187500.02, -187500.02, -187500.02, 0.000, 0.000, 0.000, 22:48:59.045, 1541908139045
30, -468.18, 15193.93, 0.00, 0.00, -187500.02, -187500.02, -187500.02, -187500.02, 0.000, 0.000, 0.000, 22:48:59.045, 1541908139045
31, -632.69, 14880.43, 0.00, 0.00, -187500.02, -187500.02, -187500.02, -187500.02, 0.000, 0.000, 0.000, 22:48:59.045, 1541908139045
32, -478.53, 14860.22, 0.00, 0.00, -187500.02, -187500.02, -187500.02, -187500.02, 0.000, 0.000, 0.000, 22:48:59.046, 1541908139046
33, -245.80, 15293.64, 0.00, 0.00, -187500.02, -187500.02, -187500.02, -187500.02, 0.000, 0.000, 0.000, 22:48:59.046, 1541908139046
34, -425.82, 15243.35, 0.00, 0.00, -187500.02, -187500.02, -187500.02, -187500.02, 0.000, 0.000, 0.000, 22:48:59.046, 1541908139046
35, -614.49, 14938.25, 0.00, 0.00, -187500.02, -187500.02, -187500.02, -187500.02, 0.114, 0.850, 0.516, 22:48:59.046, 1541908139046
36, -552.18, 14797.39, 0.00, 0.00, -187500.02, -187500.02, -187500.02, -187500.02, 0.000, 0.000, 0.000, 22:48:59.047, 1541908139047
37, -274.52, 15222.95, 0.00, 0.00, -187500.02, -187500.02, -187500.02, -187500.02, 0.000, 0.000, 0.000, 22:48:59.047, 1541908139047
38, -397.01, 15269.17, 0.00, 0.00, -187500.02, -187500.02, -187500.02, -187500.02, 0.000, 0.000, 0.000, 22:48:59.047, 1541908139047
39, -601.04, 14987.76, 0.00, 0.00, -187500.02, -187500.02, -187500.02, -187500.02, 0.000, 0.000, 0.000, 22:48:59.047, 1541908139047
40, -595.25, 14770.73, 0.00, 0.00, -187500.02, -187500.02, -187500.02, -187500.02, 0.000, 0.000, 0.000, 22:48:59.048, 1541908139048
41, -286.59, 15162.93, 0.00, 0.00, -187500.02, -187500.02, -187500.02, -187500.02, 0.000, 0.000, 0.000, 22:48:59.048, 1541908139048
42, -364.80, 15292.48, 0.00, 0.00, -187500.02, -187500.02, -187500.02, -187500.02, 0.000, 0.000, 0.000, 22:48:59.048, 1541908139048
43, -573.12, 15038.90, 0.00, 0.00, -187500.02, -187500.02, -187500.02, -187500.02, 0.000, 0.000, 0.000, 22:48:59.048, 1541908139048
44, -628.24, 14766.08, 0.00, 0.00, -187500.02, -187500.02, -187500.02, -187500.02, 0.000, 0.000, 0.000, 22:48:59.049, 1541908139049
45, -338.87, 15065.81, 0.00, 0.00, -187500.02, -187500.02, -187500.02, -187500.02, 0.114, 0.852, 0.508, 22:48:59.049, 1541908139049
46, -346.61, 15291.88, 0.00, 0.00, -187500.02, -187500.02, -187500.02, -187500.02, 0.000, 0.000, 0.000, 22:48:59.050, 1541908139050
47, -554.86, 15091.05, 0.00, 0.00, -187500.02, -187500.02, -187500.02, -187500.02, 0.000, 0.000, 0.000, 22:48:59.054, 1541908139054
48, -654.70, 14792.85, 0.00, 0.00, -187500.02, -187500.02, -187500.02, -187500.02, 0.000, 0.000, 0.000, 22:48:59.055, 1541908139055
49, -383.13, 14996.05, 0.00, 0.00, -187500.02, -187500.02, -187500.02, -187500.02, 0.000, 0.000, 0.000, 22:48:59.055, 1541908139055
50, -306.62, 15311.82, 0.00, 0.00, -187500.02, -187500.02, -187500.02, -187500.02, 0.000, 0.000, 0.000, 22:48:59.055, 1541908139055
51, -519.28, 15147.75, 0.00, 0.00, -187500.02, -187500.02, -187500.02, -187500.02, 0.000, 0.000, 0.000, 22:48:59.055, 1541908139055
52, -659.38, 14833.58, 0.00, 0.00, -187500.02, -187500.02, -187500.02, -187500.02, 0.000, 0.000, 0.000, 22:48:59.056, 1541908139056
53, -452.85, 14904.88, 0.00, 0.00, -187500.02, -187500.02, -187500.02, -187500.02, 0.000, 0.000, 0.000, 22:48:59.057, 1541908139057
54, -286.80, 15301.98, 0.00, 0.00, -187500.02, -187500.02, -187500.02, -187500.02, 0.000, 0.000, 0.000, 22:48:59.058, 1541908139058
55, -491.05, 15193.78, 0.00, 0.00, -187500.02, -187500.02, -187500.02, -187500.02, 0.114, 0.852, 0.506, 22:48:59.059, 1541908139059
56, -661.75, 14878.21, 0.00, 0.00, -187500.02, -187500.02, -187500.02, -187500.02, 0.000, 0.000, 0.000, 22:48:59.059, 1541908139059
57, -519.01, 14830.81, 0.00, 0.00, -187500.02, -187500.02, -187500.02, -187500.02, 0.000, 0.000, 0.000, 22:48:59.059, 1541908139059
58, -271.31, 15272.03, 0.00, 0.00, -187500.02, -187500.02, -187500.02, -187500.02, 0.000, 0.000, 0.000, 22:48:59.059, 1541908139059
59, -450.95, 15233.03, 0.00, 0.00, -187500.02, -187500.02, -187500.02, -187500.02, 0.000, 0.000, 0.000, 22:48:59.059, 1541908139059
60, -635.01, 14937.65, 0.00, 0.00, -187500.02, -187500.02, -187500.02, -187500.02, 0.000, 0.000, 0.000, 22:48:59.059, 1541908139059
61, -579.87, 14777.83, 0.00, 0.00, -187500.02, -187500.02, -187500.02, -187500.02, 0.000, 0.000, 0.000, 22:48:59.059, 1541908139059
62, -279.71, 15217.83, 0.00, 0.00, -187500.02, -187500.02, -187500.02, -187500.02, 0.000, 0.000, 0.000, 22:48:59.060, 1541908139060
63, -397.32, 15277.82, 0.00, 0.00, -187500.02, -187500.02, -187500.02, -187500.02, 0.000, 0.000, 0.000, 22:48:59.060, 1541908139060
64, -617.71, 14989.26, 0.00, 0.00, -187500.02, -187500.02, -187500.02, -187500.02, 0.000, 0.000, 0.000, 22:48:59.060, 1541908139060
65, -634.03, 14752.78, 0.00, 0.00, -187500.02, -187500.02, -187500.02, -187500.02, 0.114, 0.854, 0.500, 22:48:59.060, 1541908139060
66, -324.61, 15130.52, 0.00, 0.00, -187500.02, -187500.02, -187500.02, -187500.02, 0.000, 0.000, 0.000, 22:48:59.060, 1541908139060
67, -385.61, 15290.00, 0.00, 0.00, -187500.02, -187500.02, -187500.02, -187500.02, 0.000, 0.000, 0.000, 22:48:59.060, 1541908139060
68, -600.01, 15047.17, 0.00, 0.00, -187500.02, -187500.02, -187500.02, -187500.02, 0.000, 0.000, 0.000, 22:48:59.060, 1541908139060
69, -659.31, 14767.31, 0.00, 0.00, -187500.02, -187500.02, -187500.02, -187500.02, 0.000, 0.000, 0.000, 22:48:59.060, 1541908139060
70, -360.91, 15055.64, 0.00, 0.00, -187500.02, -187500.02, -187500.02, -187500.02, 0.000, 0.000, 0.000, 22:48:59.060, 1541908139060
71, -341.58, 15310.77, 0.00, 0.00, -187500.02, -187500.02, -187500.02, -187500.02, 0.000, 0.000, 0.000, 22:48:59.060, 1541908139060
72, -576.70, 15090.18, 0.00, 0.00, -187500.02, -187500.02, -187500.02, -187500.02, 0.000, 0.000, 0.000, 22:48:59.060, 1541908139060
73, -701.87, 14769.67, 0.00, 0.00, -187500.02, -187500.02, -187500.02, -187500.02, 0.000, 0.000, 0.000, 22:48:59.060, 1541908139060
74, -433.49, 14949.25, 0.00, 0.00, -187500.02, -187500.02, -187500.02, -187500.02, 0.114, 0.858, 0.502, 22:48:59.061, 1541908139061
75, -316.32, 15304.55, 0.00, 0.00, -187500.02, -187500.02, -187500.02, -187500.02, 0.000, 0.000, 0.000, 22:48:59.061, 1541908139061
76, -532.82, 15150.37, 0.00, 0.00, -187500.02, -187500.02, -187500.02, -187500.02, 0.000, 0.000, 0.000, 22:48:59.061, 1541908139061
77, -689.39, 14826.25, 0.00, 0.00, -187500.02, -187500.02, -187500.02, -187500.02, 0.000, 0.000, 0.000, 22:48:59.061, 1541908139061
78, -514.56, 14859.75, 0.00, 0.00, -187500.02, -187500.02, -187500.02, -187500.02, 0.000, 0.000, 0.000, 22:48:59.061, 1541908139061
79, -334.43, 15270.91, 0.00, 0.00, -187500.02, -187500.02, -187500.02, -187500.02, 0.000, 0.000, 0.000, 22:48:59.064, 1541908139064
80, -525.38, 15182.96, 0.00, 0.00, -187500.02, -187500.02, -187500.02, -187500.02, 0.000, 0.000, 0.000, 22:48:59.064, 1541908139064
81, -688.86, 14882.08, 0.00, 0.00, -187500.02, -187500.02, -187500.02, -187500.02, 0.000, 0.000, 0.000, 22:48:59.064, 1541908139064
82, -570.35, 14804.74, 0.00, 0.00, -187500.02, -187500.02, -187500.02, -187500.02, 0.000, 0.000, 0.000, 22:48:59.064, 1541908139064
83, -322.47, 15234.14, 0.00, 0.00, -187500.02, -187500.02, -187500.02, -187500.02, 0.000, 0.000, 0.000, 22:48:59.064, 1541908139064
84, -496.14, 15206.09, 0.00, 0.00, -187500.02, -187500.02, -187500.02, -187500.02, 0.114, 0.866, 0.504, 22:48:59.064, 1541908139064
85, -684.72, 14916.06, 0.00, 0.00, -187500.02, -187500.02, -187500.02, -187500.02, 0.000, 0.000, 0.000, 22:48:59.065, 1541908139065
86, -633.02, 14742.74, 0.00, 0.00, -187500.02, -187500.02, -187500.02, -187500.02, 0.000, 0.000, 0.000, 22:48:59.065, 1541908139065
87, -326.98, 15175.56, 0.00, 0.00, -187500.02, -187500.02, -187500.02, -187500.02, 0.000, 0.000, 0.000, 22:48:59.065, 1541908139065
88, -434.32, 15261.26, 0.00, 0.00, -187500.02, -187500.02, -187500.02, -187500.02, 0.000, 0.000, 0.000, 22:48:59.065, 1541908139065
89, -656.40, 14983.31, 0.00, 0.00, -187500.02, -187500.02, -187500.02, -187500.02, 0.000, 0.000, 0.000, 22:48:59.066, 1541908139066
90, -686.06, 14729.44, 0.00, 0.00, -187500.02, -187500.02, -187500.02, -187500.02, 0.000, 0.000, 0.000, 22:48:59.066, 1541908139066
91, -354.59, 15109.76, 0.00, 0.00, -187500.02, -187500.02, -187500.02, -187500.02, 0.000, 0.000, 0.000, 22:48:59.067, 1541908139067
92, -406.22, 15276.43, 0.00, 0.00, -187500.02, -187500.02, -187500.02, -187500.02, 0.000, 0.000, 0.000, 22:48:59.067, 1541908139067
93, -641.36, 15021.67, 0.00, 0.00, -187500.02, -187500.02, -187500.02, -187500.02, 0.000, 0.000, 0.000, 22:48:59.067, 1541908139067
94, -710.81, 14737.80, 0.00, 0.00, -187500.02, -187500.02, -187500.02, -187500.02, 0.112, 0.862, 0.510, 22:48:59.067, 1541908139067
95, -397.53, 15016.21, 0.00, 0.00, -187500.02, -187500.02, -187500.02, -187500.02, 0.000, 0.000, 0.000, 22:48:59.068, 1541908139068
96, -358.41, 15297.62, 0.00, 0.00, -187500.02, -187500.02, -187500.02, -187500.02, 0.000, 0.000, 0.000, 22:48:59.068, 1541908139068
97, -583.45, 15096.88, 0.00, 0.00, -187500.02, -187500.02, -187500.02, -187500.02, 0.000, 0.000, 0.000, 22:48:59.068, 1541908139068
98, -711.25, 14775.06, 0.00, 0.00, -187500.02, -187500.02, -187500.02, -187500.02, 0.000, 0.000, 0.000, 22:48:59.070, 1541908139070
99, -467.15, 14918.00, 0.00, 0.00, -187500.02, -187500.02, -187500.02, -187500.02, 0.000, 0.000, 0.000, 22:48:59.070, 1541908139070
100, -350.27, 15275.54, 0.00, 0.00, -187500.02, -187500.02, -187500.02, -187500.02, 0.000, 0.000, 0.000, 22:48:59.070, 1541908139070
101, -559.44, 15129.54, 0.00, 0.00, -187500.02, -187500.02, -187500.02, -187500.02, 0.000, 0.000, 0.000, 22:48:59.070, 1541908139070
102, -715.19, 14803.78, 0.00, 0.00, -187500.02, -187500.02, -187500.02, -187500.02, 0.000, 0.000, 0.000, 22:48:59.070, 1541908139070
103, -538.74, 14818.63, 0.00, 0.00, -187500.02, -187500.02, -187500.02, -187500.02, 0.000, 0.000, 0.000, 22:48:59.071, 1541908139071
104, -317.13, 15253.75, 0.00, 0.00, -187500.02, -187500.02, -187500.02, -187500.02, 0.114, 0.854, 0.516, 22:48:59.071, 1541908139071
105, -510.27, 15174.06, 0.00, 0.00, -187500.02, -187500.02, -187500.02, -187500.02, 0.000, 0.000, 0.000, 22:48:59.071, 1541908139071
106, -697.31, 14852.38, 0.00, 0.00, -187500.02, -187500.02, -187500.02, -187500.02, 0.000, 0.000, 0.000, 22:48:59.071, 1541908139071
107, -591.29, 14741.76, 0.00, 0.00, -187500.02, -187500.02, -187500.02, -187500.02, 0.000, 0.000, 0.000, 22:48:59.071, 1541908139071
108, -317.35, 15176.48, 0.00, 0.00, -187500.02, -187500.02, -187500.02, -187500.02, 0.000, 0.000, 0.000, 22:48:59.071, 1541908139071
109, -476.11, 15163.67, 0.00, 0.00, -187500.02, -187500.02, -187500.02, -187500.02, 0.000, 0.000, 0.000, 22:48:59.071, 1541908139071
110, -679.54, 14855.55, 0.00, 0.00, -187500.02, -187500.02, -187500.02, -187500.02, 0.000, 0.000, 0.000, 22:48:59.071, 1541908139071
111, -643.10, 14667.19, 0.00, 0.00, -187500.02, -187500.02, -187500.02, -187500.02, 0.000, 0.000, 0.000, 22:48:59.071, 1541908139071
112, -335.77, 15083.36, 0.00, 0.00, -187500.02, -187500.02, -187500.02, -187500.02, 0.000, 0.000, 0.000, 22:48:59.071, 1541908139071
113, -438.52, 15171.00, 0.00, 0.00, -187500.02, -187500.02, -187500.02, -187500.02, 0.000, 0.000, 0.000, 22:48:59.071, 1541908139071
114, -644.71, 14908.34, 0.00, 0.00, -187500.02, -187500.02, -187500.02, -187500.02, 0.112, 0.848, 0.514, 22:48:59.071, 1541908139071
115, -686.78, 14629.86, 0.00, 0.00, -187500.02, -187500.02, -187500.02, -187500.02, 0.000, 0.000, 0.000, 22:48:59.071, 1541908139071
116, -371.35, 14972.36, 0.00, 0.00, -187500.02, -187500.02, -187500.02, -187500.02, 0.000, 0.000, 0.000, 22:48:59.072, 1541908139072
117, -392.52, 15179.07, 0.00, 0.00, -187500.02, -187500.02, -187500.02, -187500.02, 0.000, 0.000, 0.000, 22:48:59.072, 1541908139072
118, -605.55, 14954.23, 0.00, 0.00, -187500.02, -187500.02, -187500.02, -187500.02, 0.000, 0.000, 0.000, 22:48:59.072, 1541908139072
119, -683.94, 14652.10, 0.00, 0.00, -187500.02, -187500.02, -187500.02, -187500.02, 0.000, 0.000, 0.000, 22:48:59.072, 1541908139072
120, -379.91, 14906.71, 0.00, 0.00, -187500.02, -187500.02, -187500.02, -187500.02, 0.000, 0.000, 0.000, 22:48:59.072, 1541908139072
121, -315.18, 15207.75, 0.00, 0.00, -187500.02, -187500.02, -187500.02, -187500.02, 0.000, 0.000, 0.000, 22:48:59.510, 1541908139510
122, -527.86, 15024.80, 0.00, 0.00, -187500.02, -187500.02, -187500.02, -187500.02, 0.000, 0.000, 0.000, 22:48:59.510, 1541908139510
123, -654.73, 14706.87, 0.00, 0.00, -187500.02, -187500.02, -187500.02, -187500.02, 0.116, 0.842, 0.516, 22:48:59.511, 1541908139511
124, -412.97, 14836.17, 0.00, 0.00, -187500.02, -187500.02, -187500.02, -187500.02, 0.000, 0.000, 0.000, 22:48:59.512, 1541908139512
125, -272.74, 15224.04, 0.00, 0.00, -187500.02, -187500.02, -187500.02, -187500.02, 0.000, 0.000, 0.000, 22:48:59.513, 1541908139513
126, -490.71, 15084.75, 0.00, 0.00, -187500.02, -187500.02, -187500.02, -187500.02, 0.000, 0.000, 0.000, 22:48:59.513, 1541908139513
127, -658.08, 14753.25, 0.00, 0.00, -187500.02, -187500.02, -187500.02, -187500.02, 0.000, 0.000, 0.000, 22:48:59.513, 1541908139513
128, -495.56, 14742.88, 0.00, 0.00, -187500.02, -187500.02, -187500.02, -187500.02, 0.000, 0.000, 0.000, 22:48:59.513, 1541908139513
129, -270.39, 15180.54, 0.00, 0.00, -187500.02, -187500.02, -187500.02, -187500.02, 0.000, 0.000, 0.000, 22:48:59.513, 1541908139513
130, -450.86, 15125.60, 0.00, 0.00, -187500.02, -187500.02, -187500.02, -187500.02, 0.000, 0.000, 0.000, 22:48:59.513, 1541908139513
131, -645.00, 14812.39, 0.00, 0.00, -187500.02, -187500.02, -187500.02, -187500.02, 0.000, 0.000, 0.000, 22:48:59.513, 1541908139513
132, -563.78, 14688.20, 0.00, 0.00, -187500.02, -187500.02, -187500.02, -187500.02, 0.000, 0.000, 0.000, 22:48:59.513, 1541908139513
133, -267.75, 15144.71, 0.00, 0.00, -187500.02, -187500.02, -187500.02, -187500.02, 0.110, 0.856, 0.518, 22:48:59.513, 1541908139513
134, -400.83, 15184.52, 0.00, 0.00, -187500.02, -187500.02, -187500.02, -187500.02, 0.000, 0.000, 0.000, 22:48:59.514, 1541908139514
135, -614.94, 14890.04, 0.00, 0.00, -187500.02, -187500.02, -187500.02, -187500.02, 0.000, 0.000, 0.000, 22:48:59.514, 1541908139514
136, -610.18, 14672.44, 0.00, 0.00, -187500.02, -187500.02, -187500.02, -187500.02, 0.000, 0.000, 0.000, 22:48:59.514, 1541908139514
137, -285.01, 15100.48, 0.00, 0.00, -187500.02, -187500.02, -187500.02, -187500.02, 0.000, 0.000, 0.000, 22:48:59.514, 1541908139514
138, -369.85, 15221.49, 0.00, 0.00, -187500.02, -187500.02, -187500.02, -187500.02, 0.000, 0.000, 0.000, 22:48:59.514, 1541908139514
139, -582.89, 14959.71, 0.00, 0.00, -187500.02, -187500.02, -187500.02, -187500.02, 0.000, 0.000, 0.000, 22:48:59.514, 1541908139514
140, -637.16, 14685.34, 0.00, 0.00, -187500.02, -187500.02, -187500.02, -187500.02, 0.000, 0.000, 0.000, 22:48:59.514, 1541908139514
141, -321.84, 15025.40, 0.00, 0.00, -187500.02, -187500.02, -187500.02, -187500.02, 0.000, 0.000, 0.000, 22:48:59.514, 1541908139514
142, -324.97, 15249.72, 0.00, 0.00, -187500.02, -187500.02, -187500.02, -187500.02, 0.000, 0.000, 0.000, 22:48:59.514, 1541908139514
143, -550.43, 15017.73, 0.00, 0.00, -187500.02, -187500.02, -187500.02, -187500.02, 0.108, 0.852, 0.518, 22:48:59.514, 1541908139514
144, -662.80, 14701.77, 0.00, 0.00, -187500.02, -187500.02, -187500.02, -187500.02, 0.000, 0.000, 0.000, 22:48:59.514, 1541908139514
145, -382.01, 14926.92, 0.00, 0.00, -187500.02, -187500.02, -187500.02, -187500.02, 0.000, 0.000, 0.000, 22:48:59.515, 1541908139515
146, -308.70, 15243.69, 0.00, 0.00, -187500.02, -187500.02, -187500.02, -187500.02, 0.000, 0.000, 0.000, 22:48:59.515, 1541908139515
147, -518.38, 15073.43, 0.00, 0.00, -187500.02, -187500.02, -187500.02, -187500.02, 0.000, 0.000, 0.000, 22:48:59.515, 1541908139515
148, -668.47, 14740.39, 0.00, 0.00, -187500.02, -187500.02, -187500.02, -187500.02, 0.000, 0.000, 0.000, 22:48:59.515, 1541908139515
149, -450.99, 14832.37, 0.00, 0.00, -187500.02, -187500.02, -187500.02, -187500.02, 0.000, 0.000, 0.000, 22:48:59.515, 1541908139515
150, -284.47, 15231.30, 0.00, 0.00, -187500.02, -187500.02, -187500.02, -187500.02, 0.000, 0.000, 0.000, 22:48:59.515, 1541908139515
151, -487.83, 15115.86, 0.00, 0.00, -187500.02, -187500.02, -187500.02, -187500.02, 0.000, 0.000, 0.000, 22:48:59.515, 1541908139515
152, -660.29, 14790.35, 0.00, 0.00, -187500.02, -187500.02, -187500.02, -187500.02, 0.000, 0.000, 0.000, 22:48:59.515, 1541908139515
153, -514.83, 14757.20, 0.00, 0.00, -187500.02, -187500.02, -187500.02, -187500.02, 0.112, 0.850, 0.518, 22:48:59.515, 1541908139515
154, -272.45, 15199.39, 0.00, 0.00, -187500.02, -187500.02, -187500.02, -187500.02, 0.000, 0.000, 0.000, 22:48:59.515, 1541908139515
155, -446.79, 15149.52, 0.00, 0.00, -187500.02, -187500.02, -187500.02, -187500.02, 0.000, 0.000, 0.000, 22:48:59.515, 1541908139515
156, -647.62, 14837.71, 0.00, 0.00, -187500.02, -187500.02, -187500.02, -187500.02, 0.000, 0.000, 0.000, 22:48:59.516, 1541908139516
157, -582.13, 14696.14, 0.00, 0.00, -187500.02, -187500.02, -187500.02, -187500.02, 0.000, 0.000, 0.000, 22:48:59.516, 1541908139516
158, -278.88, 15148.58, 0.00, 0.00, -187500.02, -187500.02, -187500.02, -187500.02, 0.000, 0.000, 0.000, 22:48:59.516, 1541908139516
159, -407.07, 15189.62, 0.00, 0.00, -187500.02, -187500.02, -187500.02, -187500.02, 0.000, 0.000, 0.000, 22:48:59.516, 1541908139516
160, -627.39, 14892.86, 0.00, 0.00, -187500.02, -187500.02, -187500.02, -187500.02, 0.000, 0.000, 0.000, 22:48:59.516, 1541908139516
161, -642.03, 14657.11, 0.00, 0.00, -187500.02, -187500.02, -187500.02, -187500.02, 0.000, 0.000, 0.000, 22:48:59.516, 1541908139516
162, -311.70, 15065.90, 0.00, 0.00, -187500.02, -187500.02, -187500.02, -187500.02, 0.112, 0.848, 0.522, 22:48:59.516, 1541908139516
163, -375.42, 15214.70, 0.00, 0.00, -187500.02, -187500.02, -187500.02, -187500.02, 0.000, 0.000, 0.000, 22:48:59.516, 1541908139516
164, -599.59, 14954.99, 0.00, 0.00, -187500.02, -187500.02, -187500.02, -187500.02, 0.000, 0.000, 0.000, 22:48:59.516, 1541908139516
165, -666.62, 14668.13, 0.00, 0.00, -187500.02, -187500.02, -187500.02, -187500.02, 0.000, 0.000, 0.000, 22:48:59.516, 1541908139516
166, -335.48, 15001.08, 0.00, 0.00, -187500.02, -187500.02, -187500.02, -187500.02, 0.000, 0.000, 0.000, 22:48:59.516, 1541908139516
167, -314.06, 15253.48, 0.00, 0.00, -187500.02, -187500.02, -187500.02, -187500.02, 0.000, 0.000, 0.000, 22:48:59.517, 1541908139517
168, -542.12, 15032.02, 0.00, 0.00, -187500.02, -187500.02, -187500.02, -187500.02, 0.000, 0.000, 0.000, 22:48:59.517, 1541908139517
169, -651.40, 14722.54, 0.00, 0.00, -187500.02, -187500.02, -187500.02, -187500.02, 0.000, 0.000, 0.000, 22:48:59.517, 1541908139517
170, -382.19, 14921.13, 0.00, 0.00, -187500.02, -187500.02, -187500.02, -187500.02, 0.000, 0.000, 0.000, 22:48:59.517, 1541908139517
171, -294.26, 15257.93, 0.00, 0.00, -187500.02, -187500.02, -187500.02, -187500.02, 0.000, 0.000, 0.000, 22:48:59.517, 1541908139517
172, -514.89, 15088.72, 0.00, 0.00, -187500.02, -187500.02, -187500.02, -187500.02, 0.114, 0.846, 0.514, 22:48:59.517, 1541908139517
173, -673.82, 14752.75, 0.00, 0.00, -187500.02, -187500.02, -187500.02, -187500.02, 0.000, 0.000, 0.000, 22:48:59.517, 1541908139517
174, -451.33, 14829.73, 0.00, 0.00, -187500.02, -187500.02, -187500.02, -187500.02, 0.000, 0.000, 0.000, 22:48:59.517, 1541908139517
175, -264.00, 15248.72, 0.00, 0.00, -187500.02, -187500.02, -187500.02, -187500.02, 0.000, 0.000, 0.000, 22:48:59.517, 1541908139517
176, -496.34, 15128.08, 0.00, 0.00, -187500.02, -187500.02, -187500.02, -187500.02, 0.000, 0.000, 0.000, 22:48:59.517, 1541908139517
177, -700.19, 14777.94, 0.00, 0.00, -187500.02, -187500.02, -187500.02, -187500.02, 0.000, 0.000, 0.000, 22:48:59.517, 1541908139517
178, -569.77, 14717.59, 0.00, 0.00, -187500.02, -187500.02, -187500.02, -187500.02, 0.000, 0.000, 0.000, 22:48:59.518, 1541908139518
179, -328.91, 15157.32, 0.00, 0.00, -187500.02, -187500.02, -187500.02, -187500.02, 0.000, 0.000, 0.000, 22:48:59.518, 1541908139518
180, -523.05, 15108.44, 0.00, 0.00, -187500.02, -187500.02, -187500.02, -187500.02, 0.000, 0.000, 0.000, 22:48:59.518, 1541908139518
181, -739.26, 14786.30, 0.00, 0.00, -187500.02, -187500.02, -187500.02, -187500.02, 0.000, 0.000, 0.000, 22:48:59.518, 1541908139518
182, -690.38, 14618.71, 0.00, 0.00, -187500.02, -187500.02, -187500.02, -187500.02, 0.116, 0.846, 0.520, 22:48:59.518, 1541908139518
183, -404.21, 15046.95, 0.00, 0.00, -187500.02, -187500.02, -187500.02, -187500.02, 0.000, 0.000, 0.000, 22:48:59.518, 1541908139518
184, -542.70, 15092.30, 0.00, 0.00, -187500.02, -187500.02, -187500.02, -187500.02, 0.000, 0.000, 0.000, 22:48:59.518, 1541908139518
185, -765.19, 14798.40, 0.00, 0.00, -187500.02, -187500.02, -187500.02, -187500.02, 0.000, 0.000, 0.000, 22:48:59.518, 1541908139518
186, -778.87, 14566.47, 0.00, 0.00, -187500.02, -187500.02, -187500.02, -187500.02, 0.000, 0.000, 0.000, 22:48:59.519, 1541908139519
187, -444.06, 14961.68, 0.00, 0.00, -187500.02, -187500.02, -187500.02, -187500.02, 0.000, 0.000, 0.000, 22:48:59.519, 1541908139519
188, -496.43, 15120.53, 0.00, 0.00, -187500.02, -187500.02, -187500.02, -187500.02, 0.000, 0.000, 0.000, 22:48:59.519, 1541908139519
189, -716.93, 14866.70, 0.00, 0.00, -187500.02, -187500.02, -187500.02, -187500.02, 0.000, 0.000, 0.000, 22:48:59.519, 1541908139519
190, -796.44, 14568.13, 0.00, 0.00, -187500.02, -187500.02, -187500.02, -187500.02, 0.000, 0.000, 0.000, 22:48:59.519, 1541908139519
191, -480.25, 14870.79, 0.00, 0.00, -187500.02, -187500.02, -187500.02, -187500.02, 0.000, 0.000, 0.000, 22:48:59.519, 1541908139519
192, -444.15, 15147.20, 0.00, 0.00, -187500.02, -187500.02, -187500.02, -187500.02, 0.128, 0.852, 0.518, 22:48:59.519, 1541908139519
193, -662.66, 14946.45, 0.00, 0.00, -187500.02, -187500.02, -187500.02, -187500.02, 0.000, 0.000, 0.000, 22:48:59.520, 1541908139520
194, -799.50, 14609.39, 0.00, 0.00, -187500.02, -187500.02, -187500.02, -187500.02, 0.000, 0.000, 0.000, 22:48:59.520, 1541908139520
195, -534.30, 14785.77, 0.00, 0.00, -187500.02, -187500.02, -187500.02, -187500.02, 0.000, 0.000, 0.000, 22:48:59.520, 1541908139520
196, -411.70, 15148.42, 0.00, 0.00, -187500.02, -187500.02, -187500.02, -187500.02, 0.000, 0.000, 0.000, 22:48:59.520, 1541908139520
197, -631.44, 14987.74, 0.00, 0.00, -187500.02, -187500.02, -187500.02, -187500.02, 0.000, 0.000, 0.000, 22:48:59.520, 1541908139520
198, -788.82, 14656.93, 0.00, 0.00, -187500.02, -187500.02, -187500.02, -187500.02, 0.000, 0.000, 0.000, 22:48:59.520, 1541908139520
199, -587.67, 14704.38, 0.00, 0.00, -187500.02, -187500.02, -187500.02, -187500.02, 0.000, 0.000, 0.000, 22:48:59.520, 1541908139520
200, -382.26, 15134.61, 0.00, 0.00, -187500.02, -187500.02, -187500.02, -187500.02, 0.000, 0.000, 0.000, 22:48:59.520, 1541908139520
201, -586.42, 15039.37, 0.00, 0.00, -187500.02, -187500.02, -187500.02, -187500.02, 0.000, 0.000, 0.000, 22:48:59.520, 1541908139520
202, -771.34, 14717.46, 0.00, 0.00, -187500.02, -187500.02, -187500.02, -187500.02, 0.124, 0.848, 0.508, 22:48:59.520, 1541908139520
203, -656.05, 14638.13, 0.00, 0.00, -187500.02, -187500.02, -187500.02, -187500.02, 0.000, 0.000, 0.000, 22:48:59.520, 1541908139520
204, -382.91, 15098.74, 0.00, 0.00, -187500.02, -187500.02, -187500.02, -187500.02, 0.000, 0.000, 0.000, 22:48:59.520, 1541908139520
205, -543.39, 15096.61, 0.00, 0.00, -187500.02, -187500.02, -187500.02, -187500.02, 0.000, 0.000, 0.000, 22:48:59.521, 1541908139521
206, -748.58, 14787.44, 0.00, 0.00, -187500.02, -187500.02, -187500.02, -187500.02, 0.000, 0.000, 0.000, 22:48:59.521, 1541908139521
207, -715.75, 14597.66, 0.00, 0.00, -187500.02, -187500.02, -187500.02, -187500.02, 0.000, 0.000, 0.000, 22:48:59.521, 1541908139521
208, -395.58, 15035.41, 0.00, 0.00, -187500.02, -187500.02, -187500.02, -187500.02, 0.000, 0.000, 0.000, 22:48:59.521, 1541908139521
209, -495.85, 15127.57, 0.00, 0.00, -187500.02, -187500.02, -187500.02, -187500.02, 0.000, 0.000, 0.000, 22:48:59.521, 1541908139521
210, -701.22, 14856.31, 0.00, 0.00, -187500.02, -187500.02, -187500.02, -187500.02, 0.000, 0.000, 0.000, 22:48:59.521, 1541908139521
211, -738.55, 14589.36, 0.00, 0.00, -187500.02, -187500.02, -187500.02, -187500.02, 0.120, 0.848, 0.504, 22:48:59.521, 1541908139521
212, -409.53, 14962.57, 0.00, 0.00, -187500.02, -187500.02, -187500.02, -187500.02, 0.000, 0.000, 0.000, 22:48:59.521, 1541908139521
213, -452.29, 15143.95, 0.00, 0.00, -187500.02, -187500.02, -187500.02, -187500.02, 0.000, 0.000, 0.000, 22:48:59.521, 1541908139521
214, -684.99, 14892.56, 0.00, 0.00, -187500.02, -187500.02, -187500.02, -187500.02, 0.000, 0.000, 0.000, 22:48:59.521, 1541908139521
215, -773.53, 14580.94, 0.00, 0.00, -187500.02, -187500.02, -187500.02, -187500.02, 0.000, 0.000, 0.000, 22:48:59.521, 1541908139521
216, -452.73, 14865.23, 0.00, 0.00, -187500.02, -187500.02, -187500.02, -187500.02, 0.000, 0.000, 0.000, 22:48:59.522, 1541908139522
217, -408.95, 15151.08, 0.00, 0.00, -187500.02, -187500.02, -187500.02, -187500.02, 0.000, 0.000, 0.000, 22:48:59.522, 1541908139522
218, -635.50, 14945.85, 0.00, 0.00, -187500.02, -187500.02, -187500.02, -187500.02, 0.000, 0.000, 0.000, 22:48:59.522, 1541908139522
219, -767.40, 14607.54, 0.00, 0.00, -187500.02, -187500.02, -187500.02, -187500.02, 0.000, 0.000, 0.000, 22:48:59.522, 1541908139522
220, -504.23, 14755.71, 0.00, 0.00, -187500.02, -187500.02, -187500.02, -187500.02, 0.000, 0.000, 0.000, 22:48:59.522, 1541908139522
221, -375.49, 15121.47, 0.00, 0.00, -187500.02, -187500.02, -187500.02, -187500.02, 0.120, 0.846, 0.502, 22:48:59.522, 1541908139522
222, -593.26, 14970.73, 0.00, 0.00, -187500.02, -187500.02, -187500.02, -187500.02, 0.000, 0.000, 0.000, 22:48:59.522, 1541908139522
223, -741.09, 14646.40, 0.00, 0.00, -187500.02, -187500.02, -187500.02, -187500.02, 0.000, 0.000, 0.000, 22:48:59.522, 1541908139522
224, -554.12, 14669.25, 0.00, 0.00, -187500.02, -187500.02, -187500.02, -187500.02, 0.000, 0.000, 0.000, 22:48:59.522, 1541908139522
225, -352.46, 15097.66, 0.00, 0.00, -187500.02, -187500.02, -187500.02, -187500.02, 0.000, 0.000, 0.000, 22:48:59.522, 1541908139522
226, -563.51, 15006.18, 0.00, 0.00, -187500.02, -187500.02, -187500.02, -187500.02, 0.000, 0.000, 0.000, 22:48:59.522, 1541908139522
227, -747.24, 14691.26, 0.00, 0.00, -187500.02, -187500.02, -187500.02, -187500.02, 0.000, 0.000, 0.000, 22:48:59.522, 1541908139522
228, -654.59, 14582.37, 0.00, 0.00, -187500.02, -187500.02, -187500.02, -187500.02, 0.000, 0.000, 0.000, 22:48:59.523, 1541908139523
229, -385.84, 15032.60, 0.00, 0.00, -187500.02, -187500.02, -187500.02, -187500.02, 0.000, 0.000, 0.000, 22:48:59.523, 1541908139523
230, -536.08, 15045.83, 0.00, 0.00, -187500.02, -187500.02, -187500.02, -187500.02, 0.000, 0.000, 0.000, 22:48:59.523, 1541908139523
231, -727.68, 14756.24, 0.00, 0.00, -187500.02, -187500.02, -187500.02, -187500.02, 0.112, 0.848, 0.500, 22:48:59.523, 1541908139523
232, -712.26, 14544.86, 0.00, 0.00, -187500.02, -187500.02, -187500.02, -187500.02, 0.000, 0.000, 0.000, 22:48:59.523, 1541908139523
233, -389.28, 14974.89, 0.00, 0.00, -187500.02, -187500.02, -187500.02, -187500.02, 0.000, 0.000, 0.000, 22:48:59.523, 1541908139523
234, -479.96, 15087.52, 0.00, 0.00, -187500.02, -187500.02, -187500.02, -187500.02, 0.000, 0.000, 0.000, 22:48:59.523, 1541908139523
235, -704.50, 14811.54, 0.00, 0.00, -187500.02, -187500.02, -187500.02, -187500.02, 0.000, 0.000, 0.000, 22:48:59.523, 1541908139523
236, -750.59, 14539.00, 0.00, 0.00, -187500.02, -187500.02, -187500.02, -187500.02, 0.000, 0.000, 0.000, 22:48:59.523, 1541908139523
237, -418.89, 14900.88, 0.00, 0.00, -187500.02, -187500.02, -187500.02, -187500.02, 0.000, 0.000, 0.000, 22:48:59.523, 1541908139523
238, -436.08, 15113.89, 0.00, 0.00, -187500.02, -187500.02, -187500.02, -187500.02, 0.000, 0.000, 0.000, 22:48:59.523, 1541908139523
239, -660.78, 14884.67, 0.00, 0.00, -187500.02, -187500.02, -187500.02, -187500.02, 0.000, 0.000, 0.000, 22:48:59.524, 1541908139524
240, -756.25, 14578.57, 0.00, 0.00, -187500.02, -187500.02, -187500.02, -187500.02, 0.000, 0.000, 0.000, 22:48:59.524, 1541908139524
241, -466.01, 14825.33, 0.00, 0.00, -187500.02, -187500.02, -187500.02, -187500.02, 0.114, 0.848, 0.508, 22:48:59.945, 1541908139945
242, -410.96, 15125.49, 0.00, 0.00, -187500.02, -187500.02, -187500.02, -187500.02, 0.000, 0.000, 0.000, 22:48:59.946, 1541908139946
243, -623.81, 14941.83, 0.00, 0.00, -187500.02, -187500.02, -187500.02, -187500.02, 0.000, 0.000, 0.000, 22:48:59.946, 1541908139946
244, -762.91, 14617.73, 0.00, 0.00, -187500.02, -187500.02, -187500.02, -187500.02, 0.000, 0.000, 0.000, 22:48:59.946, 1541908139946
245, -530.21, 14737.82, 0.00, 0.00, -187500.02, -187500.02, -187500.02, -187500.02, 0.000, 0.000, 0.000, 22:48:59.946, 1541908139946
246, -377.72, 15127.46, 0.00, 0.00, -187500.02, -187500.02, -187500.02, -187500.02, 0.000, 0.000, 0.000, 22:48:59.946, 1541908139946
247, -593.26, 14991.94, 0.00, 0.00, -187500.02, -187500.02, -187500.02, -187500.02, 0.000, 0.000, 0.000, 22:48:59.946, 1541908139946
248, -759.33, 14666.30, 0.00, 0.00, -187500.02, -187500.02, -187500.02, -187500.02, 0.000, 0.000, 0.000, 22:48:59.946, 1541908139946
249, -598.65, 14654.90, 0.00, 0.00, -187500.02, -187500.02, -187500.02, -187500.02, 0.000, 0.000, 0.000, 22:48:59.946, 1541908139946
250, -361.47, 15101.98, 0.00, 0.00, -187500.02, -187500.02, -187500.02, -187500.02, 0.000, 0.000, 0.000, 22:48:59.946, 1541908139946
251, -540.55, 15044.00, 0.00, 0.00, -187500.02, -187500.02, -187500.02, -187500.02, 0.124, 0.848, 0.518, 22:48:59.946, 1541908139946
252, -732.51, 14730.49, 0.00, 0.00, -187500.02, -187500.02, -187500.02, -187500.02, 0.000, 0.000, 0.000, 22:48:59.947, 1541908139947
253, -655.71, 14601.63, 0.00, 0.00, -187500.02, -187500.02, -187500.02, -187500.02, 0.000, 0.000, 0.000, 22:48:59.947, 1541908139947
254, -361.63, 15059.08, 0.00, 0.00, -187500.02, -187500.02, -187500.02, -187500.02, 0.000, 0.000, 0.000, 22:48:59.947, 1541908139947
255, -495.14, 15094.42, 0.00, 0.00, -187500.02, -187500.02, -187500.02, -187500.02, 0.000, 0.000, 0.000, 22:48:59.947, 1541908139947
0, -707.59, 14798.71, 0.00, 0.00, -187500.02, -187500.02, -187500.02, -187500.02, 0.000, 0.000, 0.000, 22:48:59.947, 1541908139947
1, -698.31, 14585.32, 0.00, 0.00, -187500.02, -187500.02, -187500.02, -187500.02, 0.000, 0.000, 0.000, 22:48:59.947, 1541908139947
2, -375.13, 15001.84, 0.00, 0.00, -187500.02, -187500.02, -187500.02, -187500.02, 0.000, 0.000, 0.000, 22:48:59.947, 1541908139947
3, -460.29, 15124.91, 0.00, 0.00, -187500.02, -187500.02, -187500.02, -187500.02, 0.000, 0.000, 0.000, 22:48:59.947, 1541908139947
4, -679.43, 14858.32, 0.00, 0.00, -187500.02, -187500.02, -187500.02, -187500.02, 0.118, 0.848, 0.518, 22:48:59.947, 1541908139947
5, -738.93, 14573.85, 0.00, 0.00, -187500.02, -187500.02, -187500.02, -187500.02, 0.000, 0.000, 0.000, 22:48:59.947, 1541908139947
6, -412.59, 14918.31, 0.00, 0.00, -187500.02, -187500.02, -187500.02, -187500.02, 0.000, 0.000, 0.000, 22:48:59.947, 1541908139947
7, -421.13, 15147.98, 0.00, 0.00, -187500.02, -187500.02, -187500.02, -187500.02, 0.000, 0.000, 0.000, 22:48:59.948, 1541908139948
8, -649.23, 14920.21, 0.00, 0.00, -187500.02, -187500.02, -187500.02, -187500.02, 0.000, 0.000, 0.000, 22:48:59.948, 1541908139948
9, -766.44, 14594.33, 0.00, 0.00, -187500.02, -187500.02, -187500.02, -187500.02, 0.000, 0.000, 0.000, 22:48:59.948, 1541908139948
10, -480.32, 14821.29, 0.00, 0.00, -187500.02, -187500.02, -187500.02, -187500.02, 0.000, 0.000, 0.000, 22:48:59.948, 1541908139948
11, -389.86, 15154.24, 0.00, 0.00, -187500.02, -187500.02, -187500.02, -187500.02, 0.000, 0.000, 0.000, 22:48:59.948, 1541908139948
12, -603.07, 14984.01, 0.00, 0.00, -187500.02, -187500.02, -187500.02, -187500.02, 0.000, 0.000, 0.000, 22:48:59.948, 1541908139948
13, -754.13, 14658.59, 0.00, 0.00, -187500.02, -187500.02, -187500.02, -187500.02, 0.000, 0.000, 0.000, 22:48:59.948, 1541908139948
14, -543.01, 14741.24, 0.00, 0.00, -187500.02, -187500.02, -187500.02, -187500.02, 0.120, 0.840, 0.516, 22:48:59.948, 1541908139948
15, -371.26, 15148.29, 0.00, 0.00, -187500.02, -187500.02, -187500.02, -187500.02, 0.000, 0.000, 0.000, 22:48:59.949, 1541908139949
16, -587.16, 15027.55, 0.00, 0.00, -187500.02, -187500.02, -187500.02, -187500.02, 0.000, 0.000, 0.000, 22:48:59.949, 1541908139949
17, -773.77, 14695.96, 0.00, 0.00, -187500.02, -187500.02, -187500.02, -187500.02, 0.000, 0.000, 0.000, 22:48:59.949, 1541908139949
18, -629.69, 14664.15, 0.00, 0.00, -187500.02, -187500.02, -187500.02, -187500.02, 0.000, 0.000, 0.000, 22:48:59.949, 1541908139949
19, -374.86, 15125.07, 0.00, 0.00, -187500.02, -187500.02, -187500.02, -187500.02, 0.000, 0.000, 0.000, 22:48:59.949, 1541908139949
20, -547.15, 15090.98, 0.00, 0.00, -187500.02, -187500.02, -187500.02, -187500.02, 0.000, 0.000, 0.000, 22:48:59.949, 1541908139949
21, -752.58, 14772.33, 0.00, 0.00, -187500.02, -187500.02, -187500.02, -187500.02, 0.000, 0.000, 0.000, 22:48:59.949, 1541908139949
22, -689.69, 14624.03, 0.00, 0.00, -187500.02, -187500.02, -187500.02, -187500.02, 0.000, 0.000, 0.000, 22:48:59.949, 1541908139949
23, -378.04, 15083.43, 0.00, 0.00, -187500.02, -187500.02, -187500.02, -187500.02, 0.000, 0.000, 0.000, 22:48:59.949, 1541908139949
24, -504.23, 15135.80, 0.00, 0.00, -187500.02, -187500.02, -187500.02, -187500.02, 0.126, 0.838, 0.518, 22:48:59.949, 1541908139949
25, -729.20, 14843.99, 0.00, 0.00, -187500.02, -187500.02, -187500.02, -187500.02, 0.000, 0.000, 0.000, 22:48:59.949, 1541908139949
26, -744.38, 14606.01, 0.00, 0.00, -187500.02, -187500.02, -187500.02, -187500.02, 0.000, 0.000, 0.000, 22:48:59.950, 1541908139950
27, -401.26, 15016.15, 0.00, 0.00, -187500.02, -187500.02, -187500.02, -187500.02, 0.000, 0.000, 0.000, 22:48:59.950, 1541908139950
28, -464.92, 15157.34, 0.00, 0.00, -187500.02, -187500.02, -187500.02, -187500.02, 0.000, 0.000, 0.000, 22:48:59.950, 1541908139950
29, -686.06, 14900.66, 0.00, 0.00, -187500.02, -187500.02, -187500.02, -187500.02, 0.000, 0.000, 0.000, 22:48:59.950, 1541908139950
30, -763.13, 14606.82, 0.00, 0.00, -187500.02, -187500.02, -187500.02, -187500.02, 0.000, 0.000, 0.000, 22:48:59.950, 1541908139950
31, -436.40, 14924.77, 0.00, 0.00, -187500.02, -187500.02, -187500.02, -187500.02, 0.000, 0.000, 0.000, 22:48:59.950, 1541908139950
32, -410.49, 15179.70, 0.00, 0.00, -187500.02, -187500.02, -187500.02, -187500.02, 0.000, 0.000, 0.000, 22:48:59.950, 1541908139950
33, -634.21, 14967.91, 0.00, 0.00, -187500.02, -187500.02, -187500.02, -187500.02, 0.000, 0.000, 0.000, 22:48:59.950, 1541908139950
34, -762.98, 14641.89, 0.00, 0.00, -187500.02, -187500.02, -187500.02, -187500.02, 0.124, 0.844, 0.522, 22:48:59.950, 1541908139950
35, -492.63, 14834.72, 0.00, 0.00, -187500.02, -187500.02, -187500.02, -187500.02, 0.000, 0.000, 0.000, 22:48:59.950, 1541908139950
36, -374.26, 15195.43, 0.00, 0.00, -187500.02, -187500.02, -187500.02, -187500.02, 0.000, 0.000, 0.000, 22:48:59.952, 1541908139952
37, -596.21, 15027.19, 0.00, 0.00, -187500.02, -187500.02, -187500.02, -187500.02, 0.000, 0.000, 0.000, 22:48:59.953, 1541908139953
38, -758.01, 14686.37, 0.00, 0.00, -187500.02, -187500.02, -187500.02, -187500.02, 0.000, 0.000, 0.000, 22:48:59.954, 1541908139954
39, -544.26, 14754.70, 0.00, 0.00, -187500.02, -187500.02, -187500.02, -187500.02, 0.000, 0.000, 0.000, 22:48:59.954, 1541908139954
40, -333.35, 15190.09, 0.00, 0.00, -187500.02, -187500.02, -187500.02, -187500.02, 0.000, 0.000, 0.000, 22:48:59.954, 1541908139954
41, -541.20, 15079.47, 0.00, 0.00, -187500.02, -187500.02, -187500.02, -187500.02, 0.000, 0.000, 0.000, 22:48:59.954, 1541908139954
42, -737.27, 14742.47, 0.00, 0.00, -187500.02, -187500.02, -187500.02, -187500.02, 0.000, 0.000, 0.000, 22:48:59.954, 1541908139954
43, -627.57, 14663.15, 0.00, 0.00, -187500.02, -187500.02, -187500.02, -187500.02, 0.122, 0.852, 0.526, 22:48:59.954, 1541908139954
44, -354.81, 15127.19, 0.00, 0.00, -187500.02, -187500.02, -187500.02, -187500.02, 0.000, 0.000, 0.000, 22:48:59.954, 1541908139954
45, -511.52, 15117.13, 0.00, 0.00, -187500.02, -187500.02, -187500.02, -187500.02, 0.000, 0.000, 0.000, 22:48:59.954, 1541908139954
46, -713.11, 14810.58, 0.00, 0.00, -187500.02, -187500.02, -187500.02, -187500.02, 0.000, 0.000, 0.000, 22:48:59.954, 1541908139954
47, -674.22, 14634.56, 0.00, 0.00, -187500.02, -187500.02, -187500.02, -187500.02, 0.000, 0.000, 0.000, 22:48:59.954, 1541908139954
48, -352.00, 15087.18, 0.00, 0.00, -187500.02, -187500.02, -187500.02, -187500.02, 0.000, 0.000, 0.000, 22:48:59.954, 1541908139954
49, -455.60, 15169.61, 0.00, 0.00, -187500.02, -187500.02, -187500.02, -187500.02, 0.000, 0.000, 0.000, 22:48:59.955, 1541908139955
50, -684.72, 14877.16, 0.00, 0.00, -187500.02, -187500.02, -187500.02, -187500.02, 0.000, 0.000, 0.000, 22:48:59.955, 1541908139955
51, -726.57, 14611.92, 0.00, 0.00, -187500.02, -187500.02, -187500.02, -187500.02, 0.000, 0.000, 0.000, 22:48:59.955, 1541908139955
52, -385.32, 15015.68, 0.00, 0.00, -187500.02, -187500.02, -187500.02, -187500.02, 0.000, 0.000, 0.000, 22:48:59.955, 1541908139955
53, -426.72, 15197.08, 0.00, 0.00, -187500.02, -187500.02, -187500.02, -187500.02, 0.126, 0.844, 0.522, 22:48:59.955, 1541908139955
54, -663.00, 14934.59, 0.00, 0.00, -187500.02, -187500.02, -187500.02, -187500.02, 0.000, 0.000, 0.000, 22:48:59.955, 1541908139955
55, -757.81, 14617.44, 0.00, 0.00, -187500.02, -187500.02, -187500.02, -187500.02, 0.000, 0.000, 0.000, 22:48:59.955, 1541908139955
56, -434.45, 14919.32, 0.00, 0.00, -187500.02, -187500.02, -187500.02, -187500.02, 0.000, 0.000, 0.000, 22:48:59.955, 1541908139955
57, -390.42, 15203.59, 0.00, 0.00, -187500.02, -187500.02, -187500.02, -187500.02, 0.000, 0.000, 0.000, 22:48:59.955, 1541908139955
58, -632.84, 14982.84, 0.00, 0.00, -187500.02, -187500.02, -187500.02, -187500.02, 0.000, 0.000, 0.000, 22:48:59.955, 1541908139955
59, -766.42, 14650.07, 0.00, 0.00, -187500.02, -187500.02, -187500.02, -187500.02, 0.000, 0.000, 0.000, 22:48:59.956, 1541908139956
60, -493.73, 14820.41, 0.00, 0.00, -187500.02, -187500.02, -187500.02, -187500.02, 0.000, 0.000, 0.000, 22:48:59.956, 1541908139956
61, -356.78, 15189.98, 0.00, 0.00, -187500.02, -187500.02, -187500.02, -187500.02, 0.000, 0.000, 0.000, 22:48:59.956, 1541908139956
62, -577.77, 15030.61, 0.00, 0.00, -187500.02, -187500.02, -187500.02, -187500.02, 0.000, 0.000, 0.000, 22:48:59.956, 1541908139956
63, -763.51, 14682.64, 0.00, 0.00, -187500.02, -187500.02, -187500.02, -187500.02, 0.122, 0.838, 0.522, 22:48:59.957, 1541908139957
64, -587.16, 14709.88, 0.00, 0.00, -187500.02, -187500.02, -187500.02, -187500.02, 0.000, 0.000, 0.000, 22:48:59.957, 1541908139957
65, -370.66, 15148.47, 0.00, 0.00, -187500.02, -187500.02, -187500.02, -187500.02, 0.000, 0.000, 0.000, 22:48:59.957, 1541908139957
66, -554.59, 15073.88, 0.00, 0.00, -187500.02, -187500.02, -187500.02, -187500.02, 0.000, 0.000, 0.000, 22:48:59.957, 1541908139957
67, -748.76, 14746.67, 0.00, 0.00, -187500.02, -187500.02, -187500.02, -187500.02, 0.000, 0.000, 0.000, 22:48:59.958, 1541908139958
68, -638.72, 14652.13, 0.00, 0.00, -187500.02, -187500.02, -187500.02, -187500.02, 0.000, 0.000, 0.000, 22:48:59.958, 1541908139958
69, -349.69, 15115.34, 0.00, 0.00, -187500.02, -187500.02, -187500.02, -187500.02, 0.000, 0.000, 0.000, 22:48:59.958, 1541908139958
70, -516.59, 15106.02, 0.00, 0.00, -187500.02, -187500.02, -187500.02, -187500.02, 0.000, 0.000, 0.000, 22:48:59.958, 1541908139958
71, -727.24, 14797.68, 0.00, 0.00, -187500.02, -187500.02, -187500.02, -187500.02, 0.000, 0.000, 0.000, 22:48:59.958, 1541908139958
72, -710.81, 14591.31, 0.00, 0.00, -187500.02, -187500.02, -187500.02, -187500.02, 0.000, 0.000, 0.000, 22:48:59.958, 1541908139958
73, -385.50, 15032.15, 0.00, 0.00, -187500.02, -187500.02, -187500.02, -187500.02, 0.114, 0.844, 0.524, 22:48:59.958, 1541908139958
74, -486.96, 15127.30, 0.00, 0.00, -187500.02, -187500.02, -187500.02, -187500.02, 0.000, 0.000, 0.000, 22:48:59.958, 1541908139958
75, -716.44, 14842.68, 0.00, 0.00, -187500.02, -187500.02, -187500.02, -187500.02, 0.000, 0.000, 0.000, 22:48:59.958, 1541908139958
76, -760.12, 14575.44, 0.00, 0.00, -187500.02, -187500.02, -187500.02, -187500.02, 0.000, 0.000, 0.000, 22:48:59.958, 1541908139958
77, -431.55, 14944.91, 0.00, 0.00, -187500.02, -187500.02, -187500.02, -187500.02, 0.000, 0.000, 0.000, 22:48:59.959, 1541908139959
78, -452.31, 15149.74, 0.00, 0.00, -187500.02, -187500.02, -187500.02, -187500.02, 0.000, 0.000, 0.000, 22:48:59.959, 1541908139959
79, -688.25, 14898.96, 0.00, 0.00, -187500.02, -187500.02, -187500.02, -187500.02, 0.000, 0.000, 0.000, 22:48:59.959, 1541908139959
80, -802.52, 14572.06, 0.00, 0.00, -187500.02, -187500.02, -187500.02, -187500.02, 0.000, 0.000, 0.000, 22:48:59.959, 1541908139959
81, -496.52, 14847.91, 0.00, 0.00, -187500.02, -187500.02, -187500.02, -187500.02, 0.000, 0.000, 0.000, 22:48:59.959, 1541908139959
82, -428.77, 15153.05, 0.00, 0.00, -187500.02, -187500.02, -187500.02, -187500.02, 0.000, 0.000, 0.000, 22:48:59.959, 1541908139959
83, -655.93, 14950.68, 0.00, 0.00, -187500.02, -187500.02, -187500.02, -187500.02, 0.112, 0.852, 0.522, 22:48:59.959, 1541908139959
84, -794.63, 14622.44, 0.00, 0.00, -187500.02, -187500.02, -187500.02, -187500.02, 0.000, 0.000, 0.000, 22:48:59.959, 1541908139959
85, -554.64, 14760.71, 0.00, 0.00, -187500.02, -187500.02, -187500.02, -187500.02, 0.000, 0.000, 0.000, 22:48:59.960, 1541908139960
86, -404.48, 15148.92, 0.00, 0.00, -187500.02, -187500.02, -187500.02, -187500.02, 0.000, 0.000, 0.000, 22:48:59.977, 1541908139977
87, -615.25, 15009.78, 0.00, 0.00, -187500.02, -187500.02, -187500.02, -187500.02, 0.000, 0.000, 0.000, 22:48:59.978, 1541908139978
88, -794.96, 14665.22, 0.00, 0.00, -187500.02, -187500.02, -187500.02, -187500.02, 0.000, 0.000, 0.000, 22:48:59.978, 1541908139978
89, -620.86, 14665.67, 0.00, 0.00, -187500.02, -187500.02, -187500.02, -187500.02, 0.000, 0.000, 0.000, 22:48:59.978, 1541908139978
90, -386.62, 15103.34, 0.00, 0.00, -187500.02, -187500.02, -187500.02, -187500.02, 0.000, 0.000, 0.000, 22:48:59.978, 1541908139978
0, 0.00, 0.00, 0.00, 0.00, 0.00, 0.00, 0.00, 0.00, 0.110, 0.848, 0.526, 22:48:59.978, 1541908139978
1, -513.33, 14904.52, 0.00, 0.00, 0.00, -187500.02, -187500.02, -187500.02, 0.000, 0.000, 0.000, 22:49:00.439, 1541908140439
2, -591.18, 15016.71, 0.00, 0.00, 0.00, -187500.02, -187500.02, -187500.02, 0.000, 0.000, 0.000, 22:49:00.439, 1541908140439
3, -799.77, 14744.35, 0.00, 0.00, 0.00, -187500.02, -187500.02, -187500.02, 0.000, 0.000, 0.000, 22:49:00.439, 1541908140439
4, -832.02, 14488.62, 0.00, 0.00, 0.00, -187500.02, -187500.02, -187500.02, 0.000, 0.000, 0.000, 22:49:00.439, 1541908140439
5, -498.47, 14874.12, 0.00, 0.00, 0.00, -187500.02, -187500.02, -187500.02, 0.110, 0.850, 0.522, 22:49:00.439, 1541908140439
6, -517.17, 15072.92, 0.00, 0.00, 0.00, -187500.02, -187500.02, -187500.02, 0.000, 0.000, 0.000, 22:49:00.439, 1541908140439
7, -739.08, 14832.59, 0.00, 0.00, 0.00, -187500.02, -187500.02, -187500.02, 0.000, 0.000, 0.000, 22:49:00.439, 1541908140439
8, -841.01, 14515.42, 0.00, 0.00, 0.00, -187500.02, -187500.02, -187500.02, 0.000, 0.000, 0.000, 22:49:00.439, 1541908140439
9, -523.28, 14800.36, 0.00, 0.00, 0.00, -187500.02, -187500.02, -187500.02, 0.000, 0.000, 0.000, 22:49:00.439, 1541908140439
10, -464.63, 15089.24, 0.00, 0.00, 0.00, -187500.02, -187500.02, -187500.02, 0.000, 0.000, 0.000, 22:49:00.439, 1541908140439
11, -679.58, 14896.92, 0.00, 0.00, 0.00, -187500.02, -187500.02, -187500.02, 0.000, 0.000, 0.000, 22:49:00.439, 1541908140439
12, -837.21, 14549.13, 0.00, 0.00, 0.00, -187500.02, -187500.02, -187500.02, 0.000, 0.000, 0.000, 22:49:00.439, 1541908140439
13, -593.15, 14694.06, 0.00, 0.00, 0.00, -187500.02, -187500.02, -187500.02, 0.000, 0.000, 0.000, 22:49:00.440, 1541908140440
14, -440.60, 15082.31, 0.00, 0.00, 0.00, -187500.02, -187500.02, -187500.02, 0.000, 0.000, 0.000, 22:49:00.440, 1541908140440
15, -652.00, 14941.87, 0.00, 0.00, 0.00, -187500.02, -187500.02, -187500.02, 0.110, 0.834, 0.514, 22:49:00.440, 1541908140440
16, -839.73, 14587.06, 0.00, 0.00, 0.00, -187500.02, -187500.02, -187500.02, 0.000, 0.000, 0.000, 22:49:00.440, 1541908140440
17, -665.41, 14598.42, 0.00, 0.00, 0.00, -187500.02, -187500.02, -187500.02, 0.000, 0.000, 0.000, 22:49:00.440, 1541908140440
18, -422.14, 15055.20, 0.00, 0.00, 0.00, -187500.02, -187500.02, -187500.02, 0.000, 0.000, 0.000, 22:49:00.440, 1541908140440
19, -599.45, 14989.59, 0.00, 0.00, 0.00, -187500.02, -187500.02, -187500.02, 0.000, 0.000, 0.000, 22:49:00.440, 1541908140440
20, -806.47, 14653.18, 0.00, 0.00, 0.00, -187500.02, -187500.02, -187500.02, 0.000, 0.000, 0.000, 22:49:00.440, 1541908140440
21, -721.92, 14541.89, 0.00, 0.00, 0.00, -187500.02, -187500.02, -187500.02, 0.000, 0.000, 0.000, 22:49:00.440, 1541908140440
22, -419.01, 15007.47, 0.00, 0.00, 0.00, -187500.02, -187500.02, -187500.02, 0.000, 0.000, 0.000, 22:49:00.440, 1541908140440
23, -563.06, 15012.73, 0.00, 0.00, 0.00, -187500.02, -187500.02, -187500.02, 0.000, 0.000, 0.000, 22:49:00.440, 1541908140440
24, -785.48, 14699.27, 0.00, 0.00, 0.00, -187500.02, -187500.02, -187500.02, 0.000, 0.000, 0.000, 22:49:00.440, 1541908140440
25, -767.54, 14498.37, 0.00, 0.00, 0.00, -187500.02, -187500.02, -187500.02, 0.108, 0.848, 0.510, 22:49:00.440, 1541908140440
26, -447.53, 14924.97, 0.00, 0.00, 0.00, -187500.02, -187500.02, -187500.02, 0.000, 0.000, 0.000, 22:49:00.440, 1541908140440
27, -528.17, 15038.16, 0.00, 0.00, 0.00, -187500.02, -187500.02, -187500.02, 0.000, 0.000, 0.000, 22:49:00.440, 1541908140440
28, -757.93, 14758.36, 0.00, 0.00, 0.00, -187500.02, -187500.02, -187500.02, 0.000, 0.000, 0.000, 22:49:00.440, 1541908140440
29, -817.11, 14479.86, 0.00, 0.00, 0.00, -187500.02, -187500.02, -187500.02, 0.000, 0.000, 0.000, 22:49:00.441, 1541908140441
30, -487.54, 14845.02, 0.00, 0.00, 0.00, -187500.02, -187500.02, -187500.02, 0.000, 0.000, 0.000, 22:49:00.441, 1541908140441
31, -478.46, 15070.48, 0.00, 0.00, 0.00, -187500.02, -187500.02, -187500.02, 0.000, 0.000, 0.000, 22:49:00.441, 1541908140441
32, -708.17, 14827.81, 0.00, 0.00, 0.00, -187500.02, -187500.02, -187500.02, 0.000, 0.000, 0.000, 22:49:00.441, 1541908140441
33, -835.08, 14495.87, 0.00, 0.00, 0.00, -187500.02, -187500.02, -187500.02, 0.000, 0.000, 0.000, 22:49:00.441, 1541908140441
34, -543.95, 14743.75, 0.00, 0.00, 0.00, -187500.02, -187500.02, -187500.02, 0.108, 0.856, 0.514, 22:49:00.441, 1541908140441
35, -456.33, 15061.19, 0.00, 0.00, 0.00, -187500.02, -187500.02, -187500.02, 0.000, 0.000, 0.000, 22:49:00.441, 1541908140441
36, -669.70, 14882.53, 0.00, 0.00, 0.00, -187500.02, -187500.02, -187500.02, 0.000, 0.000, 0.000, 22:49:00.441, 1541908140441
37, -818.65, 14556.44, 0.00, 0.00, 0.00, -187500.02, -187500.02, -187500.02, 0.000, 0.000, 0.000, 22:49:00.441, 1541908140441
38, -601.35, 14670.03, 0.00, 0.00, 0.00, -187500.02, -187500.02, -187500.02, 0.000, 0.000, 0.000, 22:49:00.441, 1541908140441
39, -449.69, 15049.67, 0.00, 0.00, 0.00, -187500.02, -187500.02, -187500.02, 0.000, 0.000, 0.000, 22:49:00.441, 1541908140441
40, -651.91, 14922.58, 0.00, 0.00, 0.00, -187500.02, -187500.02, -187500.02, 0.000, 0.000, 0.000, 22:49:00.441, 1541908140441
41, -825.16, 14596.11, 0.00, 0.00, 0.00, -187500.02, -187500.02, -187500.02, 0.000, 0.000, 0.000, 22:49:00.441, 1541908140441
42, -682.80, 14573.16, 0.00, 0.00, 0.00, -187500.02, -187500.02, -187500.02, 0.000, 0.000, 0.000, 22:49:00.441, 1541908140441
43, -431.34, 15025.51, 0.00, 0.00, 0.00, -187500.02, -187500.02, -187500.02, 0.000, 0.000, 0.000, 22:49:00.441, 1541908140441
44, -603.41, 14975.27, 0.00, 0.00, 0.00, -187500.02, -187500.02, -187500.02, 0.110, 0.852, 0.514, 22:49:00.441, 1541908140441
45, -799.05, 14659.84, 0.00, 0.00, 0.00, -187500.02, -187500.02, -187500.02, 0.000, 0.000, 0.000, 22:49:00.442, 1541908140442
46, -738.79, 14521.91, 0.00, 0.00, 0.00, -187500.02, -187500.02, -187500.02, 0.000, 0.000, 0.000, 22:49:00.442, 1541908140442
47, -436.86, 14978.31, 0.00, 0.00, 0.00, -187500.02, -187500.02, -187500.02, 0.000, 0.000, 0.000, 22:49:00.442, 1541908140442
48, -565.48, 15014.36, 0.00, 0.00, 0.00, -187500.02, -187500.02, -187500.02, 0.000, 0.000, 0.000, 22:49:00.442, 1541908140442
49, -768.27, 14730.54, 0.00, 0.00, 0.00, -187500.02, -187500.02, -187500.02, 0.000, 0.000, 0.000, 22:49:00.442, 1541908140442
50, -779.87, 14503.89, 0.00, 0.00, 0.00, -187500.02, -187500.02, -187500.02, 0.000, 0.000, 0.000, 22:49:00.442, 1541908140442
51, -459.40, 14910.63, 0.00, 0.00, 0.00, -187500.02, -187500.02, -187500.02, 0.000, 0.000, 0.000, 22:49:00.442, 1541908140442
52, -526.52, 15036.15, 0.00, 0.00, 0.00, -187500.02, -187500.02, -187500.02, 0.000, 0.000, 0.000, 22:49:00.442, 1541908140442
53, -740.00, 14781.88, 0.00, 0.00, 0.00, -187500.02, -187500.02, -187500.02, 0.000, 0.000, 0.000, 22:49:00.442, 1541908140442
54, -811.75, 14497.92, 0.00, 0.00, 0.00, -187500.02, -187500.02, -187500.02, 0.116, 0.850, 0.510, 22:49:00.443, 1541908140443
55, -501.28, 14829.53, 0.00, 0.00, 0.00, -187500.02, -187500.02, -187500.02, 0.000, 0.000, 0.000, 22:49:00.443, 1541908140443
56, -502.87, 15054.86, 0.00, 0.00, 0.00, -187500.02, -187500.02, -187500.02, 0.000, 0.000, 0.000, 22:49:00.443, 1541908140443
57, -723.93, 14836.89, 0.00, 0.00, 0.00, -187500.02, -187500.02, -187500.02, 0.000, 0.000, 0.000, 22:49:00.443, 1541908140443
58, -858.28, 14516.88, 0.00, 0.00, 0.00, -187500.02, -187500.02, -187500.02, 0.000, 0.000, 0.000, 22:49:00.443, 1541908140443
59, -588.97, 14733.55, 0.00, 0.00, 0.00, -187500.02, -187500.02, -187500.02, 0.000, 0.000, 0.000, 22:49:00.443, 1541908140443
60, -504.64, 15049.09, 0.00, 0.00, 0.00, -187500.02, -187500.02, -187500.02, 0.000, 0.000, 0.000, 22:49:00.443, 1541908140443
61, -717.36, 14881.37, 0.00, 0.00, 0.00, -187500.02, -187500.02, -187500.02, 0.000, 0.000, 0.000, 22:49:00.443, 1541908140443
62, -869.73, 14562.63, 0.00, 0.00, 0.00, -187500.02, -187500.02, -187500.02, 0.000, 0.000, 0.000, 22:49:00.443, 1541908140443
63, -679.20, 14633.58, 0.00, 0.00, 0.00, -187500.02, -187500.02, -187500.02, 0.000, 0.000, 0.000, 22:49:00.443, 1541908140443
64, -499.00, 15031.48, 0.00, 0.00, 0.00, -187500.02, -187500.02, -187500.02, 0.120, 0.854, 0.510, 22:49:00.443, 1541908140443
65, -686.31, 14931.77, 0.00, 0.00, 0.00, -187500.02, -187500.02, -187500.02, 0.000, 0.000, 0.000, 22:49:00.443, 1541908140443
66, -872.52, 14611.87, 0.00, 0.00, 0.00, -187500.02, -187500.02, -187500.02, 0.000, 0.000, 0.000, 22:49:00.443, 1541908140443
67, -740.98, 14570.95, 0.00, 0.00, 0.00, -187500.02, -187500.02, -187500.02, 0.000, 0.000, 0.000, 22:49:00.443, 1541908140443
68, -495.45, 14991.49, 0.00, 0.00, 0.00, -187500.02, -187500.02, -187500.02, 0.000, 0.000, 0.000, 22:49:00.443, 1541908140443
69, -648.07, 14964.78, 0.00, 0.00, 0.00, -187500.02, -187500.02, -187500.02, 0.000, 0.000, 0.000, 22:49:00.444, 1541908140444
70, -837.99, 14677.36, 0.00, 0.00, 0.00, -187500.02, -187500.02, -187500.02, 0.000, 0.000, 0.000, 22:49:00.444, 1541908140444
71, -794.52, 14523.45, 0.00, 0.00, 0.00, -187500.02, -187500.02, -187500.02, 0.000, 0.000, 0.000, 22:49:00.444, 1541908140444
72, -511.63, 14932.55, 0.00, 0.00, 0.00, -187500.02, -187500.02, -187500.02, 0.000, 0.000, 0.000, 22:49:00.445, 1541908140445
73, -598.89, 15009.40, 0.00, 0.00, 0.00, -187500.02, -187500.02, -187500.02, 0.000, 0.000, 0.000, 22:49:00.445, 1541908140445
74, -794.07, 14751.84, 0.00, 0.00, 0.00, -187500.02, -187500.02, -187500.02, 0.126, 0.850, 0.506, 22:49:00.445, 1541908140445
75, -822.01, 14522.55, 0.00, 0.00, 0.00, -187500.02, -187500.02, -187500.02, 0.000, 0.000, 0.000, 22:49:00.445, 1541908140445
76, -509.71, 14889.59, 0.00, 0.00, 0.00, -187500.02, -187500.02, -187500.02, 0.000, 0.000, 0.000, 22:49:00.445, 1541908140445
77, -540.73, 15047.86, 0.00, 0.00, 0.00, -187500.02, -187500.02, -187500.02, 0.000, 0.000, 0.000, 22:49:00.446, 1541908140446
78, -741.83, 14824.32, 0.00, 0.00, 0.00, -187500.02, -187500.02, -187500.02, 0.000, 0.000, 0.000, 22:49:00.446, 1541908140446
79, -831.60, 14547.27, 0.00, 0.00, 0.00, -187500.02, -187500.02, -187500.02, 0.000, 0.000, 0.000, 22:49:00.446, 1541908140446
80, -561.63, 14796.65, 0.00, 0.00, 0.00, -187500.02, -187500.02, -187500.02, 0.000, 0.000, 0.000, 22:49:00.446, 1541908140446
81, -524.37, 15037.56, 0.00, 0.00, 0.00, -187500.02, -187500.02, -187500.02, 0.000, 0.000, 0.000, 22:49:00.446, 1541908140446
82, -726.21, 14862.03, 0.00, 0.00, 0.00, -187500.02, -187500.02, -187500.02, 0.000, 0.000, 0.000, 22:49:00.446, 1541908140446
83, -852.47, 14567.79, 0.00, 0.00, 0.00, -187500.02, -187500.02, -187500.02, 0.136, 0.858, 0.502, 22:49:00.447, 1541908140447
84, -630.63, 14700.61, 0.00, 0.00, 0.00, -187500.02, -187500.02, -187500.02, 0.000, 0.000, 0.000, 22:49:00.447, 1541908140447
85, -518.92, 15012.84, 0.00, 0.00, 0.00, -187500.02, -187500.02, -187500.02, 0.000, 0.000, 0.000, 22:49:00.447, 1541908140447
86, -689.55, 14904.99, 0.00, 0.00, 0.00, -187500.02, -187500.02, -187500.02, 0.000, 0.000, 0.000, 22:49:00.447, 1541908140447
87, -848.63, 14606.95, 0.00, 0.00, 0.00, -187500.02, -187500.02, -187500.02, 0.000, 0.000, 0.000, 22:49:00.447, 1541908140447
88, -698.02, 14619.87, 0.00, 0.00, 0.00, -187500.02, -187500.02, -187500.02, 0.000, 0.000, 0.000, 22:49:00.447, 1541908140447
89, -512.95, 14990.78, 0.00, 0.00, 0.00, -187500.02, -187500.02, -187500.02, 0.000, 0.000, 0.000, 22:49:00.447, 1541908140447
90, -678.46, 14930.32, 0.00, 0.00, 0.00, -187500.02, -187500.02, -187500.02, 0.000, 0.000, 0.000, 22:49:00.447, 1541908140447
91, -843.60, 14657.71, 0.00, 0.00, 0.00, -187500.02, -187500.02, -187500.02, 0.000, 0.000, 0.000, 22:49:00.447, 1541908140447
92, -768.61, 14555.37, 0.00, 0.00, 0.00, -187500.02, -187500.02, -187500.02, 0.000, 0.000, 0.000, 22:49:00.448, 1541908140448
93, -517.20, 14955.69, 0.00, 0.00, 0.00, -187500.02, -187500.02, -187500.02, 0.136, 0.850, 0.502, 22:49:00.448, 1541908140448
94, -623.14, 14985.19, 0.00, 0.00, 0.00, -187500.02, -187500.02, -187500.02, 0.000, 0.000, 0.000, 22:49:00.448, 1541908140448
95, -816.89, 14709.41, 0.00, 0.00, 0.00, -187500.02, -187500.02, -187500.02, 0.000, 0.000, 0.000, 22:49:00.448, 1541908140448
96, -810.94, 14519.40, 0.00, 0.00, 0.00, -187500.02, -187500.02, -187500.02, 0.000, 0.000, 0.000, 22:49:00.448, 1541908140448
97, -524.91, 14899.72, 0.00, 0.00, 0.00, -187500.02, -187500.02, -187500.02, 0.000, 0.000, 0.000, 22:49:00.448, 1541908140448
98, -602.96, 14993.21, 0.00, 0.00, 0.00, -187500.02, -187500.02, -187500.02, 0.000, 0.000, 0.000, 22:49:00.448, 1541908140448
99, -805.74, 14752.55, 0.00, 0.00, 0.00, -187500.02, -187500.02, -187500.02, 0.000, 0.000, 0.000, 22:49:00.448, 1541908140448
100, -865.46, 14501.32, 0.00, 0.00, 0.00, -187500.02, -187500.02, -187500.02, 0.000, 0.000, 0.000, 22:49:00.448, 1541908140448
101, -573.46, 14817.69, 0.00, 0.00, 0.00, -187500.02, -187500.02, -187500.02, 0.000, 0.000, 0.000, 22:49:00.448, 1541908140448
102, -575.40, 15008.06, 0.00, 0.00, 0.00, -187500.02, -187500.02, -187500.02, 0.000, 0.000, 0.000, 22:49:00.449, 1541908140449
103, -776.54, 14802.64, 0.00, 0.00, 0.00, -187500.02, -187500.02, -187500.02, 0.142, 0.850, 0.498, 22:49:00.449, 1541908140449
104, -907.41, 14494.41, 0.00, 0.00, 0.00, -187500.02, -187500.02, -187500.02, 0.000, 0.000, 0.000, 22:49:00.449, 1541908140449
105, -643.93, 14715.85, 0.00, 0.00, 0.00, -187500.02, -187500.02, -187500.02, 0.000, 0.000, 0.000, 22:49:00.449, 1541908140449
106, -562.41, 14996.70, 0.00, 0.00, 0.00, -187500.02, -187500.02, -187500.02, 0.000, 0.000, 0.000, 22:49:00.449, 1541908140449
107, -752.52, 14835.66, 0.00, 0.00, 0.00, -187500.02, -187500.02, -187500.02, 0.000, 0.000, 0.000, 22:49:00.449, 1541908140449
108, -904.26, 14522.89, 0.00, 0.00, 0.00, -187500.02, -187500.02, -187500.02, 0.000, 0.000, 0.000, 22:49:00.449, 1541908140449
109, -692.59, 14634.38, 0.00, 0.00, 0.00, -187500.02, -187500.02, -187500.02, 0.000, 0.000, 0.000, 22:49:00.449, 1541908140449
110, -547.62, 14982.62, 0.00, 0.00, 0.00, -187500.02, -187500.02, -187500.02, 0.000, 0.000, 0.000, 22:49:00.449, 1541908140449
111, -726.28, 14876.96, 0.00, 0.00, 0.00, -187500.02, -187500.02, -187500.02, 0.000, 0.000, 0.000, 22:49:00.449, 1541908140449
112, -908.17, 14559.57, 0.00, 0.00, 0.00, -187500.02, -187500.02, -187500.02, 0.000, 0.000, 0.000, 22:49:00.450, 1541908140450
113, -769.06, 14547.10, 0.00, 0.00, 0.00, -187500.02, -187500.02, -187500.02, 0.142, 0.848, 0.502, 22:49:00.450, 1541908140450
114, -541.11, 14950.39, 0.00, 0.00, 0.00, -187500.02, -187500.02, -187500.02, 0.000, 0.000, 0.000, 22:49:00.450, 1541908140450
115, -689.26, 14912.41, 0.00, 0.00, 0.00, -187500.02, -187500.02, -187500.02, 0.000, 0.000, 0.000, 22:49:00.450, 1541908140450
116, -863.29, 14626.49, 0.00, 0.00, 0.00, -187500.02, -187500.02, -187500.02, 0.000, 0.000, 0.000, 22:49:00.450, 1541908140450
117, -818.57, 14484.89, 0.00, 0.00, 0.00, -187500.02, -187500.02, -187500.02, 0.000, 0.000, 0.000, 22:49:00.450, 1541908140450
118, -545.81, 14896.90, 0.00, 0.00, 0.00, -187500.02, -187500.02, -187500.02, 0.000, 0.000, 0.000, 22:49:00.450, 1541908140450
119, -643.95, 14943.73, 0.00, 0.00, 0.00, -187500.02, -187500.02, -187500.02, 0.000, 0.000, 0.000, 22:49:00.451, 1541908140451
120, -854.60, 14661.54, 0.00, 0.00, 0.00, -187500.02, -187500.02, -187500.02, 0.000, 0.000, 0.000, 22:49:00.451, 1541908140451
121, -866.00, 14447.90, 0.00, 0.00, 0.00, -187500.02, -187500.02, -187500.02, 0.000, 0.000, 0.000, 22:49:00.462, 1541908140462
122, -556.27, 14829.80, 0.00, 0.00, 0.00, -187500.02, -187500.02, -187500.02, 0.000, 0.000, 0.000, 22:49:00.462, 1541908140462
123, -613.94, 14944.33, 0.00, 0.00, 0.00, -187500.02, -187500.02, -187500.02, 0.136, 0.850, 0.506, 22:49:00.462, 1541908140462
0, 0.00, 0.00, 0.00, 0.00, 0.00, 0.00, 0.00, 0.00, 0.000, 0.000, 0.000, 22:49:00.479, 1541908140479
1, -683.87, 14828.39, 0.00, 0.00, 0.00, 0.00, -187500.02, -187500.02, 0.000, 0.000, 0.000, 22:49:00.959, 1541908140959
2, -853.86, 14645.89, 0.00, 0.00, 0.00, 0.00, -187500.02, -187500.02, 0.134, 0.852, 0.514, 22:49:00.959, 1541908140959
3, -959.38, 14350.60, 0.00, 0.00, 0.00, 0.00, -187500.02, -187500.02, 0.000, 0.000, 0.000, 22:49:00.959, 1541908140959
4, -679.20, 14591.91, 0.00, 0.00, 0.00, 0.00, -187500.02, -187500.02, 0.000, 0.000, 0.000, 22:49:00.959, 1541908140959
5, -574.89, 14903.38, 0.00, 0.00, 0.00, 0.00, -187500.02, -187500.02, 0.000, 0.000, 0.000, 22:49:00.959, 1541908140959
6, -766.49, 14742.41, 0.00, 0.00, 0.00, 0.00, -187500.02, -187500.02, 0.000, 0.000, 0.000, 22:49:00.960, 1541908140960
7, -919.42, 14420.70, 0.00, 0.00, 0.00, 0.00, -187500.02, -187500.02, 0.000, 0.000, 0.000, 22:49:00.960, 1541908140960
8, -705.53, 14525.57, 0.00, 0.00, 0.00, 0.00, -187500.02, -187500.02, 0.000, 0.000, 0.000, 22:49:00.961, 1541908140961
9, -530.65, 14888.59, 0.00, 0.00, 0.00, 0.00, -187500.02, -187500.02, 0.000, 0.000, 0.000, 22:49:00.961, 1541908140961
10, -698.13, 14784.34, 0.00, 0.00, 0.00, 0.00, -187500.02, -187500.02, 0.000, 0.000, 0.000, 22:49:00.962, 1541908140962
11, -886.11, 14458.11, 0.00, 0.00, 0.00, 0.00, -187500.02, -187500.02, 0.000, 0.000, 0.000, 22:49:00.962, 1541908140962
12, -750.62, 14438.15, 0.00, 0.00, 0.00, 0.00, -187500.02, -187500.02, 0.134, 0.846, 0.518, 22:49:00.962, 1541908140962
13, -506.13, 14859.53, 0.00, 0.00, 0.00, 0.00, -187500.02, -187500.02, 0.000, 0.000, 0.000, 22:49:00.962, 1541908140962
14, -656.36, 14820.06, 0.00, 0.00, 0.00, 0.00, -187500.02, -187500.02, 0.000, 0.000, 0.000, 22:49:00.962, 1541908140962
15, -862.13, 14507.51, 0.00, 0.00, 0.00, 0.00, -187500.02, -187500.02, 0.000, 0.000, 0.000, 22:49:00.963, 1541908140963
16, -808.26, 14375.79, 0.00, 0.00, 0.00, 0.00, -187500.02, -187500.02, 0.000, 0.000, 0.000, 22:49:00.963, 1541908140963
17, -493.73, 14823.72, 0.00, 0.00, 0.00, 0.00, -187500.02, -187500.02, 0.000, 0.000, 0.000, 22:49:00.963, 1541908140963
18, -602.29, 14863.28, 0.00, 0.00, 0.00, 0.00, -187500.02, -187500.02, 0.000, 0.000, 0.000, 22:49:00.964, 1541908140964
19, -826.14, 14579.24, 0.00, 0.00, 0.00, 0.00, -187500.02, -187500.02, 0.000, 0.000, 0.000, 22:49:00.964, 1541908140964
20, -862.82, 14349.84, 0.00, 0.00, 0.00, 0.00, -187500.02, -187500.02, 0.000, 0.000, 0.000, 22:49:00.965, 1541908140965
21, -526.96, 14770.43, 0.00, 0.00, 0.00, 0.00, -187500.02, -187500.02, 0.000, 0.000, 0.000, 22:49:00.965, 1541908140965
22, -571.33, 14904.72, 0.00, 0.00, 0.00, 0.00, -187500.02, -187500.02, 0.140, 0.846, 0.524, 22:49:00.965, 1541908140965
23, -795.59, 14638.00, 0.00, 0.00, 0.00, 0.00, -187500.02, -187500.02, 0.000, 0.000, 0.000, 22:49:00.965, 1541908140965
24, -893.22, 14338.78, 0.00, 0.00, 0.00, 0.00, -187500.02, -187500.02, 0.000, 0.000, 0.000, 22:49:00.965, 1541908140965
25, -553.50, 14702.15, 0.00, 0.00, 0.00, 0.00, -187500.02, -187500.02, 0.000, 0.000, 0.000, 22:49:00.965, 1541908140965
26, -539.79, 14925.67, 0.00, 0.00, 0.00, 0.00, -187500.02, -187500.02, 0.000, 0.000, 0.000, 22:49:00.965, 1541908140965
27, -763.45, 14700.47, 0.00, 0.00, 0.00, 0.00, -187500.02, -187500.02, 0.000, 0.000, 0.000, 22:49:00.965, 1541908140965
28, -905.85, 14364.46, 0.00, 0.00, 0.00, 0.00, -187500.02, -187500.02, 0.000, 0.000, 0.000, 22:49:00.965, 1541908140965
29, -611.90, 14615.92, 0.00, 0.00, 0.00, 0.00, -187500.02, -187500.02, 0.000, 0.000, 0.000, 22:49:00.965, 1541908140965
30, -499.07, 14946.14, 0.00, 0.00, 0.00, 0.00, -187500.02, -187500.02, 0.000, 0.000, 0.000, 22:49:00.965, 1541908140965
31, -706.36, 14773.85, 0.00, 0.00, 0.00, 0.00, -187500.02, -187500.02, 0.128, 0.842, 0.510, 22:49:00.965, 1541908140965
32, -905.00, 14409.39, 0.00, 0.00, 0.00, 0.00, -187500.02, -187500.02, 0.000, 0.000, 0.000, 22:49:00.965, 1541908140965
33, -676.23, 14531.52, 0.00, 0.00, 0.00, 0.00, -187500.02, -187500.02, 0.000, 0.000, 0.000, 22:49:00.965, 1541908140965
34, -472.90, 14951.44, 0.00, 0.00, 0.00, 0.00, -187500.02, -187500.02, 0.000, 0.000, 0.000, 22:49:00.965, 1541908140965
35, -673.39, 14827.16, 0.00, 0.00, 0.00, 0.00, -187500.02, -187500.02, 0.000, 0.000, 0.000, 22:49:00.965, 1541908140965
36, -889.24, 14473.07, 0.00, 0.00, 0.00, 0.00, -187500.02, -187500.02, 0.000, 0.000, 0.000, 22:49:00.966, 1541908140966
37, -745.36, 14461.58, 0.00, 0.00, 0.00, 0.00, -187500.02, -187500.02, 0.000, 0.000, 0.000, 22:49:00.966, 1541908140966
38, -448.06, 14953.41, 0.00, 0.00, 0.00, 0.00, -187500.02, -187500.02, 0.000, 0.000, 0.000, 22:49:00.966, 1541908140966
39, -618.00, 14902.15, 0.00, 0.00, 0.00, 0.00, -187500.02, -187500.02, 0.000, 0.000, 0.000, 22:49:00.966, 1541908140966
40, -856.88, 14556.10, 0.00, 0.00, 0.00, 0.00, -187500.02, -187500.02, 0.000, 0.000, 0.000, 22:49:00.966, 1541908140966
41, -820.15, 14404.83, 0.00, 0.00, 0.00, 0.00, -187500.02, -187500.02, 0.126, 0.846, 0.514, 22:49:00.966, 1541908140966
42, -488.21, 14885.01, 0.00, 0.00, 0.00, 0.00, -187500.02, -187500.02, 0.000, 0.000, 0.000, 22:49:00.966, 1541908140966
43, -584.79, 14945.40, 0.00, 0.00, 0.00, 0.00, -187500.02, -187500.02, 0.000, 0.000, 0.000, 22:49:00.966, 1541908140966
44, -818.52, 14635.72, 0.00, 0.00, 0.00, 0.00, -187500.02, -187500.02, 0.000, 0.000, 0.000, 22:49:00.966, 1541908140966
45, -868.86, 14383.84, 0.00, 0.00, 0.00, 0.00, -187500.02, -187500.02, 0.000, 0.000, 0.000, 22:49:00.966, 1541908140966
46, -510.22, 14832.39, 0.00, 0.00, 0.00, 0.00, -187500.02, -187500.02, 0.000, 0.000, 0.000, 22:49:00.966, 1541908140966
47, -555.17, 14977.68, 0.00, 0.00, 0.00, 0.00, -187500.02, -187500.02, 0.000, 0.000, 0.000, 22:49:00.966, 1541908140966
48, -792.68, 14704.68, 0.00, 0.00, 0.00, 0.00, -187500.02, -187500.02, 0.000, 0.000, 0.000, 22:49:00.967, 1541908140967
49, -906.88, 14392.91, 0.00, 0.00, 0.00, 0.00, -187500.02, -187500.02, 0.000, 0.000, 0.000, 22:49:00.967, 1541908140967
50, -541.61, 14761.36, 0.00, 0.00, 0.00, 0.00, -187500.02, -187500.02, 0.000, 0.000, 0.000, 22:49:00.967, 1541908140967
51, -496.90, 15010.18, 0.00, 0.00, 0.00, 0.00, -187500.02, -187500.02, 0.114, 0.850, 0.506, 22:49:00.967, 1541908140967
52, -734.86, 14775.82, 0.00, 0.00, 0.00, 0.00, -187500.02, -187500.02, 0.000, 0.000, 0.000, 22:49:00.967, 1541908140967
53, -917.25, 14398.70, 0.00, 0.00, 0.00, 0.00, -187500.02, -187500.02, 0.000, 0.000, 0.000, 22:49:00.967, 1541908140967
54, -618.32, 14633.80, 0.00, 0.00, 0.00, 0.00, -187500.02, -187500.02, 0.000, 0.000, 0.000, 22:49:00.967, 1541908140967
55, -467.75, 14996.86, 0.00, 0.00, 0.00, 0.00, -187500.02, -187500.02, 0.000, 0.000, 0.000, 22:49:00.967, 1541908140967
56, -676.07, 14822.87, 0.00, 0.00, 0.00, 0.00, -187500.02, -187500.02, 0.000, 0.000, 0.000, 22:49:00.967, 1541908140967
57, -878.98, 14454.29, 0.00, 0.00, 0.00, 0.00, -187500.02, -187500.02, 0.000, 0.000, 0.000, 22:49:00.967, 1541908140967
58, -683.00, 14536.48, 0.00, 0.00, 0.00, 0.00, -187500.02, -187500.02, 0.000, 0.000, 0.000, 22:49:00.967, 1541908140967
59, -448.62, 14980.12, 0.00, 0.00, 0.00, 0.00, -187500.02, -187500.02, 0.000, 0.000, 0.000, 22:49:00.968, 1541908140968
60, -631.26, 14885.72, 0.00, 0.00, 0.00, 0.00, -187500.02, -187500.02, 0.000, 0.000, 0.000, 22:49:00.968, 1541908140968
61, -859.89, 14523.92, 0.00, 0.00, 0.00, 0.00, -187500.02, -187500.02, 0.108, 0.856, 0.508, 22:49:00.968, 1541908140968
