%OpenBCI Raw EEG Data
%Number of channels = 8
%Sample Rate = 250.0 Hz
%First Column = SampleIndex
%Last Column = Timestamp 
%Other Columns = EEG data in microvolts followed by Accel Data (in G) interleaved with Aux Data
0, 40465.17, 15488.37, -187500.02, -187500.02, -187500.02, -187500.02, -187500.02, -187500.02, 0.152, 0.338, 0.304, 21:23:14.628, 1541902994628
1, 40913.28, 16006.17, -187500.02, -187500.02, -187500.02, -187500.02, -187500.02, -187500.02, 0.000, 0.000, 0.000, 21:23:14.628, 1541902994628
2, 40686.50, 15728.18, -187500.02, -187500.02, -187500.02, -187500.02, -187500.02, -187500.02, 0.000, 0.000, 0.000, 21:23:14.628, 1541902994628
3, 40306.39, 15278.51, -187500.02, -187500.02, -187500.02, -187500.02, -187500.02, -187500.02, 0.000, 0.000, 0.000, 21:23:14.628, 1541902994628
4, 40383.66, 15377.46, -187500.02, -187500.02, -187500.02, -187500.02, -187500.02, -187500.02, 0.000, 0.000, 0.000, 21:23:14.628, 1541902994628
5, 40849.44, 15915.78, -187500.02, -187500.02, -187500.02, -187500.02, -187500.02, -187500.02, 0.000, 0.000, 0.000, 21:23:14.628, 1541902994628
6, 40759.05, 15803.93, -187500.02, -187500.02, -187500.02, -187500.02, -187500.02, -187500.02, 0.000, 0.000, 0.000, 21:23:14.628, 1541902994628
7, 40323.48, 15315.37, -187500.02, -187500.02, -187500.02, -187500.02, -187500.02, -187500.02, 0.220, 0.510, 0.442, 21:23:14.628, 1541902994628
8, 40322.93, 15351.85, -187500.02, -187500.02, -187500.02, -187500.02, -187500.02, -187500.02, 0.000, 0.000, 0.000, 21:23:14.629, 1541902994629
9, 40767.48, 15875.53, -187500.02, -187500.02, -187500.02, -187500.02, -187500.02, -187500.02, 0.000, 0.000, 0.000, 21:23:14.629, 1541902994629
10, 40814.89, 15897.41, -187500.02, -187500.02, -187500.02, -187500.02, -187500.02, -187500.02, 0.000, 0.000, 0.000, 21:23:14.629, 1541902994629
11, 40395.93, 15375.76, -187500.02, -187500.02, -187500.02, -187500.02, -187500.02, -187500.02, 0.000, 0.000, 0.000, 21:23:14.629, 1541902994629
12, 40304.39, 15284.03, -187500.02, -187500.02, -187500.02, -187500.02, -187500.02, -187500.02, 0.000, 0.000, 0.000, 21:23:14.629, 1541902994629
13, 40699.71, 15757.33, -187500.02, -187500.02, -187500.02, -187500.02, -187500.02, -187500.02, 0.000, 0.000, 0.000, 21:23:14.629, 1541902994629
14, 40876.96, 15972.29, -187500.02, -187500.02, -187500.02, -187500.02, -187500.02, -187500.02, 0.000, 0.000, 0.000, 21:23:14.629, 1541902994629
15, 40444.39, 15460.37, -187500.02, -187500.02, -187500.02, -187500.02, -187500.02, -187500.02, 0.000, 0.000, 0.000, 21:23:14.630, 1541902994630
16, 40286.20, 15260.65, -187500.02, -187500.02, -187500.02, -187500.02, -187500.02, -187500.02, 0.000, 0.000, 0.000, 21:23:14.632, 1541902994632
17, 40621.30, 15654.25, -187500.02, -187500.02, -187500.02, -187500.02, -187500.02, -187500.02, 0.252, 0.600, 0.508, 21:23:14.632, 1541902994632
18, 40921.15, 16016.99, -187500.02, -187500.02, -187500.02, -187500.02, -187500.02, -187500.02, 0.000, 0.000, 0.000, 21:23:14.632, 1541902994632
19, 40540.00, 15555.07, -187500.02, -187500.02, -187500.02, -187500.02, -187500.02, -187500.02, 0.000, 0.000, 0.000, 21:23:14.632, 1541902994632
20, 40282.22, 15266.98, -187500.02, -187500.02, -187500.02, -187500.02, -187500.02, -187500.02, 0.000, 0.000, 0.000, 21:23:14.632, 1541902994632
21, 40528.96, 15569.17, -187500.02, -187500.02, -187500.02, -187500.02, -187500.02, -187500.02, 0.000, 0.000, 0.000, 21:23:14.632, 1541902994632
22, 40928.84, 16040.86, -187500.02, -187500.02, -187500.02, -187500.02, -187500.02, -187500.02, 0.000, 0.000, 0.000, 21:23:14.632, 1541902994632
23, 40620.94, 15663.39, -187500.02, -187500.02, -187500.02, -187500.02, -187500.02, -187500.02, 0.000, 0.000, 0.000, 21:23:14.632, 1541902994632
24, 40301.18, 15271.67, -187500.02, -187500.02, -187500.02, -187500.02, -187500.02, -187500.02, 0.000, 0.000, 0.000, 21:23:14.633, 1541902994633
25, 40465.46, 15468.73, -187500.02, -187500.02, -187500.02, -187500.02, -187500.02, -187500.02, 0.000, 0.000, 0.000, 21:23:14.633, 1541902994633
26, 40904.25, 16002.71, -187500.02, -187500.02, -187500.02, -187500.02, -187500.02, -187500.02, 0.000, 0.000, 0.000, 21:23:14.633, 1541902994633
27, 40688.80, 15747.99, -187500.02, -187500.02, -187500.02, -187500.02, -187500.02, -187500.02, 0.278, 0.646, 0.542, 21:23:14.633, 1541902994633
28, 40306.54, 15287.61, -187500.02, -187500.02, -187500.02, -187500.02, -187500.02, -187500.02, 0.000, 0.000, 0.000, 21:23:14.633, 1541902994633
29, 40389.18, 15393.60, -187500.02, -187500.02, -187500.02, -187500.02, -187500.02, -187500.02, 0.000, 0.000, 0.000, 21:23:14.633, 1541902994633
30, 40856.51, 15951.08, -187500.02, -187500.02, -187500.02, -187500.02, -187500.02, -187500.02, 0.000, 0.000, 0.000, 21:23:14.633, 1541902994633
31, 40786.52, 15864.17, -187500.02, -187500.02, -187500.02, -187500.02, -187500.02, -187500.02, 0.000, 0.000, 0.000, 21:23:14.633, 1541902994633
32, 40362.06, 15363.18, -187500.02, -187500.02, -187500.02, -187500.02, -187500.02, -187500.02, 0.000, 0.000, 0.000, 21:23:14.633, 1541902994633
33, 40341.52, 15354.66, -187500.02, -187500.02, -187500.02, -187500.02, -187500.02, -187500.02, 0.000, 0.000, 0.000, 21:23:14.633, 1541902994633
34, 40775.93, 15861.89, -187500.02, -187500.02, -187500.02, -187500.02, -187500.02, -187500.02, 0.000, 0.000, 0.000, 21:23:14.633, 1541902994633
35, 40838.22, 15921.21, -187500.02, -187500.02, -187500.02, -187500.02, -187500.02, -187500.02, 0.000, 0.000, 0.000, 21:23:14.641, 1541902994641
36, 40402.30, 15395.90, -187500.02, -187500.02, -187500.02, -187500.02, -187500.02, -187500.02, 0.000, 0.000, 0.000, 21:23:14.641, 1541902994641
37, 40317.18, 15293.98, -187500.02, -187500.02, -187500.02, -187500.02, -187500.02, -187500.02, 0.292, 0.666, 0.568, 21:23:14.641, 1541902994641
38, 40693.92, 15749.64, -187500.02, -187500.02, -187500.02, -187500.02, -187500.02, -187500.02, 0.000, 0.000, 0.000, 21:23:14.641, 1541902994641
39, 40892.20, 15999.22, -187500.02, -187500.02, -187500.02, -187500.02, -187500.02, -187500.02, 0.000, 0.000, 0.000, 21:23:14.641, 1541902994641
40, 40484.28, 15495.19, -187500.02, -187500.02, -187500.02, -187500.02, -187500.02, -187500.02, 0.000, 0.000, 0.000, 21:23:14.641, 1541902994641
41, 40317.79, 15300.22, -187500.02, -187500.02, -187500.02, -187500.02, -187500.02, -187500.02, 0.000, 0.000, 0.000, 21:23:14.641, 1541902994641
42, 40623.24, 15682.83, -187500.02, -187500.02, -187500.02, -187500.02, -187500.02, -187500.02, 0.000, 0.000, 0.000, 21:23:14.642, 1541902994642
43, 40915.40, 16044.26, -187500.02, -187500.02, -187500.02, -187500.02, -187500.02, -187500.02, 0.000, 0.000, 0.000, 21:23:14.642, 1541902994642
44, 40534.13, 15579.95, -187500.02, -187500.02, -187500.02, -187500.02, -187500.02, -187500.02, 0.000, 0.000, 0.000, 21:23:14.642, 1541902994642
45, 40263.71, 15263.60, -187500.02, -187500.02, -187500.02, -187500.02, -187500.02, -187500.02, 0.000, 0.000, 0.000, 21:23:14.642, 1541902994642
46, 40500.38, 15541.66, -187500.02, -187500.02, -187500.02, -187500.02, -187500.02, -187500.02, 0.000, 0.000, 0.000, 21:23:14.642, 1541902994642
47, 40904.41, 16028.37, -187500.02, -187500.02, -187500.02, -187500.02, -187500.02, -187500.02, 0.300, 0.668, 0.592, 21:23:14.642, 1541902994642
48, 40612.11, 15675.55, -187500.02, -187500.02, -187500.02, -187500.02, -187500.02, -187500.02, 0.000, 0.000, 0.000, 21:23:14.642, 1541902994642
49, 40290.79, 15275.09, -187500.02, -187500.02, -187500.02, -187500.02, -187500.02, -187500.02, 0.000, 0.000, 0.000, 21:23:14.642, 1541902994642
50, 40452.12, 15470.85, -187500.02, -187500.02, -187500.02, -187500.02, -187500.02, -187500.02, 0.000, 0.000, 0.000, 21:23:14.642, 1541902994642
51, 40886.17, 16024.81, -187500.02, -187500.02, -187500.02, -187500.02, -187500.02, -187500.02, 0.000, 0.000, 0.000, 21:23:14.642, 1541902994642
52, 40693.29, 15800.54, -187500.02, -187500.02, -187500.02, -187500.02, -187500.02, -187500.02, 0.000, 0.000, 0.000, 21:23:14.642, 1541902994642
53, 40314.01, 15318.68, -187500.02, -187500.02, -187500.02, -187500.02, -187500.02, -187500.02, 0.000, 0.000, 0.000, 21:23:14.643, 1541902994643
54, 40381.13, 15393.18, -187500.02, -187500.02, -187500.02, -187500.02, -187500.02, -187500.02, 0.000, 0.000, 0.000, 21:23:14.643, 1541902994643
55, 40828.90, 15923.27, -187500.02, -187500.02, -187500.02, -187500.02, -187500.02, -187500.02, 0.000, 0.000, 0.000, 21:23:14.643, 1541902994643
56, 40788.49, 15863.50, -187500.02, -187500.02, -187500.02, -187500.02, -187500.02, -187500.02, 0.000, 0.000, 0.000, 21:23:14.643, 1541902994643
57, 40336.85, 15352.63, -187500.02, -187500.02, -187500.02, -187500.02, -187500.02, -187500.02, 0.000, 0.000, 0.000, 21:23:14.643, 1541902994643
58, 40314.21, 15333.92, -187500.02, -187500.02, -187500.02, -187500.02, -187500.02, -187500.02, 0.294, 0.668, 0.600, 21:23:14.643, 1541902994643
59, 40744.99, 15850.16, -187500.02, -187500.02, -187500.02, -187500.02, -187500.02, -187500.02, 0.000, 0.000, 0.000, 21:23:14.643, 1541902994643
60, 40824.03, 15956.60, -187500.02, -187500.02, -187500.02, -187500.02, -187500.02, -187500.02, 0.000, 0.000, 0.000, 21:23:14.643, 1541902994643
61, 40391.12, 15427.46, -187500.02, -187500.02, -187500.02, -187500.02, -187500.02, -187500.02, 0.000, 0.000, 0.000, 21:23:14.643, 1541902994643
62, 40283.50, 15303.05, -187500.02, -187500.02, -187500.02, -187500.02, -187500.02, -187500.02, 0.000, 0.000, 0.000, 21:23:14.643, 1541902994643
63, 40653.13, 15740.12, -187500.02, -187500.02, -187500.02, -187500.02, -187500.02, -187500.02, 0.000, 0.000, 0.000, 21:23:14.643, 1541902994643
64, 40877.54, 15990.57, -187500.02, -187500.02, -187500.02, -187500.02, -187500.02, -187500.02, 0.000, 0.000, 0.000, 21:23:14.644, 1541902994644
65, 40449.55, 15480.97, -187500.02, -187500.02, -187500.02, -187500.02, -187500.02, -187500.02, 0.000, 0.000, 0.000, 21:23:14.644, 1541902994644
66, 40256.34, 15267.96, -187500.02, -187500.02, -187500.02, -187500.02, -187500.02, -187500.02, 0.000, 0.000, 0.000, 21:23:14.644, 1541902994644
67, 40560.28, 15629.50, -187500.02, -187500.02, -187500.02, -187500.02, -187500.02, -187500.02, 0.000, 0.000, 0.000, 21:23:14.644, 1541902994644
68, 40890.59, 16030.89, -187500.02, -187500.02, -187500.02, -187500.02, -187500.02, -187500.02, 0.290, 0.666, 0.606, 21:23:14.644, 1541902994644
69, 40528.90, 15583.05, -187500.02, -187500.02, -187500.02, -187500.02, -187500.02, -187500.02, 0.000, 0.000, 0.000, 21:23:14.644, 1541902994644
70, 40251.71, 15256.76, -187500.02, -187500.02, -187500.02, -187500.02, -187500.02, -187500.02, 0.000, 0.000, 0.000, 21:23:14.644, 1541902994644
71, 40477.89, 15523.91, -187500.02, -187500.02, -187500.02, -187500.02, -187500.02, -187500.02, 0.000, 0.000, 0.000, 21:23:14.644, 1541902994644
72, 40894.10, 16015.49, -187500.02, -187500.02, -187500.02, -187500.02, -187500.02, -187500.02, 0.000, 0.000, 0.000, 21:23:14.644, 1541902994644
73, 40615.49, 15690.21, -187500.02, -187500.02, -187500.02, -187500.02, -187500.02, -187500.02, 0.000, 0.000, 0.000, 21:23:14.644, 1541902994644
74, 40271.83, 15282.02, -187500.02, -187500.02, -187500.02, -187500.02, -187500.02, -187500.02, 0.000, 0.000, 0.000, 21:23:14.644, 1541902994644
75, 40414.14, 15445.14, -187500.02, -187500.02, -187500.02, -187500.02, -187500.02, -187500.02, 0.000, 0.000, 0.000, 21:23:14.645, 1541902994645
76, 40859.28, 15970.12, -187500.02, -187500.02, -187500.02, -187500.02, -187500.02, -187500.02, 0.000, 0.000, 0.000, 21:23:14.645, 1541902994645
77, 40693.32, 15783.88, -187500.02, -187500.02, -187500.02, -187500.02, -187500.02, -187500.02, 0.000, 0.000, 0.000, 21:23:14.645, 1541902994645
78, 40304.69, 15317.38, -187500.02, -187500.02, -187500.02, -187500.02, -187500.02, -187500.02, 0.286, 0.680, 0.610, 21:23:14.645, 1541902994645
79, 40355.58, 15381.93, -187500.02, -187500.02, -187500.02, -187500.02, -187500.02, -187500.02, 0.000, 0.000, 0.000, 21:23:14.645, 1541902994645
80, 40811.29, 15928.19, -187500.02, -187500.02, -187500.02, -187500.02, -187500.02, -187500.02, 0.000, 0.000, 0.000, 21:23:14.645, 1541902994645
81, 40775.55, 15891.31, -187500.02, -187500.02, -187500.02, -187500.02, -187500.02, -187500.02, 0.000, 0.000, 0.000, 21:23:14.645, 1541902994645
82, 40321.76, 15353.93, -187500.02, -187500.02, -187500.02, -187500.02, -187500.02, -187500.02, 0.000, 0.000, 0.000, 21:23:14.645, 1541902994645
83, 40291.14, 15323.08, -187500.02, -187500.02, -187500.02, -187500.02, -187500.02, -187500.02, 0.000, 0.000, 0.000, 21:23:14.645, 1541902994645
84, 40715.45, 15813.19, -187500.02, -187500.02, -187500.02, -187500.02, -187500.02, -187500.02, 0.000, 0.000, 0.000, 21:23:14.645, 1541902994645
85, 40837.60, 15953.15, -187500.02, -187500.02, -187500.02, -187500.02, -187500.02, -187500.02, 0.000, 0.000, 0.000, 21:23:14.645, 1541902994645
86, 40399.50, 15439.60, -187500.02, -187500.02, -187500.02, -187500.02, -187500.02, -187500.02, 0.000, 0.000, 0.000, 21:23:14.646, 1541902994646
87, 40258.57, 15287.72, -187500.02, -187500.02, -187500.02, -187500.02, -187500.02, -187500.02, 0.000, 0.000, 0.000, 21:23:14.646, 1541902994646
88, 40626.33, 15720.50, -187500.02, -187500.02, -187500.02, -187500.02, -187500.02, -187500.02, 0.290, 0.680, 0.604, 21:23:14.646, 1541902994646
89, 40884.40, 16010.35, -187500.02, -187500.02, -187500.02, -187500.02, -187500.02, -187500.02, 0.000, 0.000, 0.000, 21:23:14.646, 1541902994646
90, 40470.29, 15520.25, -187500.02, -187500.02, -187500.02, -187500.02, -187500.02, -187500.02, 0.000, 0.000, 0.000, 21:23:14.650, 1541902994650
91, 40253.43, 15285.44, -187500.02, -187500.02, -187500.02, -187500.02, -187500.02, -187500.02, 0.000, 0.000, 0.000, 21:23:14.651, 1541902994651
92, 40529.30, 15616.78, -187500.02, -187500.02, -187500.02, -187500.02, -187500.02, -187500.02, 0.000, 0.000, 0.000, 21:23:14.651, 1541902994651
93, 40870.70, 16012.63, -187500.02, -187500.02, -187500.02, -187500.02, -187500.02, -187500.02, 0.000, 0.000, 0.000, 21:23:14.651, 1541902994651
94, 40531.96, 15597.90, -187500.02, -187500.02, -187500.02, -187500.02, -187500.02, -187500.02, 0.000, 0.000, 0.000, 21:23:14.651, 1541902994651
95, 40249.48, 15263.00, -187500.02, -187500.02, -187500.02, -187500.02, -187500.02, -187500.02, 0.000, 0.000, 0.000, 21:23:14.651, 1541902994651
96, 40466.29, 15520.36, -187500.02, -187500.02, -187500.02, -187500.02, -187500.02, -187500.02, 0.000, 0.000, 0.000, 21:23:14.651, 1541902994651
97, 40891.42, 16023.61, -187500.02, -187500.02, -187500.02, -187500.02, -187500.02, -187500.02, 0.000, 0.000, 0.000, 21:23:14.651, 1541902994651
98, 40643.27, 15709.79, -187500.02, -187500.02, -187500.02, -187500.02, -187500.02, -187500.02, 0.292, 0.684, 0.604, 21:23:14.652, 1541902994652
99, 40287.25, 15298.52, -187500.02, -187500.02, -187500.02, -187500.02, -187500.02, -187500.02, 0.000, 0.000, 0.000, 21:23:14.652, 1541902994652
100, 40401.31, 15460.88, -187500.02, -187500.02, -187500.02, -187500.02, -187500.02, -187500.02, 0.000, 0.000, 0.000, 21:23:14.652, 1541902994652
101, 40849.13, 15980.76, -187500.02, -187500.02, -187500.02, -187500.02, -187500.02, -187500.02, 0.000, 0.000, 0.000, 21:23:14.652, 1541902994652
102, 40710.06, 15801.65, -187500.02, -187500.02, -187500.02, -187500.02, -187500.02, -187500.02, 0.000, 0.000, 0.000, 21:23:14.652, 1541902994652
103, 40304.22, 15323.30, -187500.02, -187500.02, -187500.02, -187500.02, -187500.02, -187500.02, 0.000, 0.000, 0.000, 21:23:14.652, 1541902994652
104, 40333.97, 15362.73, -187500.02, -187500.02, -187500.02, -187500.02, -187500.02, -187500.02, 0.000, 0.000, 0.000, 21:23:14.652, 1541902994652
105, 40785.65, 15891.04, -187500.02, -187500.02, -187500.02, -187500.02, -187500.02, -187500.02, 0.000, 0.000, 0.000, 21:23:14.657, 1541902994657
106, 40786.75, 15889.50, -187500.02, -187500.02, -187500.02, -187500.02, -187500.02, -187500.02, 0.000, 0.000, 0.000, 21:23:14.657, 1541902994657
107, 40357.93, 15380.06, -187500.02, -187500.02, -187500.02, -187500.02, -187500.02, -187500.02, 0.000, 0.000, 0.000, 21:23:14.676, 1541902994676
108, 40303.30, 15316.35, -187500.02, -187500.02, -187500.02, -187500.02, -187500.02, -187500.02, 0.288, 0.684, 0.610, 21:23:14.676, 1541902994676
109, 40700.71, 15798.82, -187500.02, -187500.02, -187500.02, -187500.02, -187500.02, -187500.02, 0.000, 0.000, 0.000, 21:23:14.676, 1541902994676
110, 40833.77, 15967.37, -187500.02, -187500.02, -187500.02, -187500.02, -187500.02, -187500.02, 0.000, 0.000, 0.000, 21:23:14.676, 1541902994676
111, 40408.27, 15449.21, -187500.02, -187500.02, -187500.02, -187500.02, -187500.02, -187500.02, 0.000, 0.000, 0.000, 21:23:14.676, 1541902994676
112, 40255.45, 15292.91, -187500.02, -187500.02, -187500.02, -187500.02, -187500.02, -187500.02, 0.000, 0.000, 0.000, 21:23:14.677, 1541902994677
113, 40610.44, 15715.47, -187500.02, -187500.02, -187500.02, -187500.02, -187500.02, -187500.02, 0.000, 0.000, 0.000, 21:23:14.677, 1541902994677
114, 40886.23, 16006.08, -187500.02, -187500.02, -187500.02, -187500.02, -187500.02, -187500.02, 0.000, 0.000, 0.000, 21:23:14.677, 1541902994677
115, 40473.55, 15508.15, -187500.02, -187500.02, -187500.02, -187500.02, -187500.02, -187500.02, 0.000, 0.000, 0.000, 21:23:14.677, 1541902994677
116, 40244.80, 15246.44, -187500.02, -187500.02, -187500.02, -187500.02, -187500.02, -187500.02, 0.000, 0.000, 0.000, 21:23:14.677, 1541902994677
117, 40525.19, 15585.60, -187500.02, -187500.02, -187500.02, -187500.02, -187500.02, -187500.02, 0.000, 0.000, 0.000, 21:23:14.677, 1541902994677
118, 40898.35, 16020.30, -187500.02, -187500.02, -187500.02, -187500.02, -187500.02, -187500.02, 0.290, 0.682, 0.604, 21:23:14.677, 1541902994677
119, 40576.15, 15634.22, -187500.02, -187500.02, -187500.02, -187500.02, -187500.02, -187500.02, 0.000, 0.000, 0.000, 21:23:14.677, 1541902994677
120, 40277.57, 15278.11, -187500.02, -187500.02, -187500.02, -187500.02, -187500.02, -187500.02, 0.000, 0.000, 0.000, 21:23:14.810, 1541902994810
121, 40464.23, 15507.97, -187500.02, -187500.02, -187500.02, -187500.02, -187500.02, -187500.02, 0.000, 0.000, 0.000, 21:23:14.813, 1541902994813
122, 40873.70, 16015.23, -187500.02, -187500.02, -187500.02, -187500.02, -187500.02, -187500.02, 0.000, 0.000, 0.000, 21:23:14.815, 1541902994815
123, 40636.61, 15721.81, -187500.02, -187500.02, -187500.02, -187500.02, -187500.02, -187500.02, 0.000, 0.000, 0.000, 21:23:14.817, 1541902994817
124, 40275.00, 15287.72, -187500.02, -187500.02, -187500.02, -187500.02, -187500.02, -187500.02, 0.000, 0.000, 0.000, 21:23:14.819, 1541902994819
125, 40374.27, 15403.68, -187500.02, -187500.02, -187500.02, -187500.02, -187500.02, -187500.02, 0.000, 0.000, 0.000, 21:23:14.819, 1541902994819
126, 40813.46, 15932.41, -187500.02, -187500.02, -187500.02, -187500.02, -187500.02, -187500.02, 0.000, 0.000, 0.000, 21:23:14.820, 1541902994820
127, 40704.98, 15816.43, -187500.02, -187500.02, -187500.02, -187500.02, -187500.02, -187500.02, 0.000, 0.000, 0.000, 21:23:14.822, 1541902994822
128, 40312.64, 15339.69, -187500.02, -187500.02, -187500.02, -187500.02, -187500.02, -187500.02, 0.000, 0.000, 0.000, 21:23:14.824, 1541902994824
129, 40338.04, 15359.74, -187500.02, -187500.02, -187500.02, -187500.02, -187500.02, -187500.02, 0.290, 0.676, 0.598, 21:23:14.825, 1541902994825
130, 40777.61, 15885.23, -187500.02, -187500.02, -187500.02, -187500.02, -187500.02, -187500.02, 0.000, 0.000, 0.000, 21:23:14.825, 1541902994825
131, 40790.73, 15911.40, -187500.02, -187500.02, -187500.02, -187500.02, -187500.02, -187500.02, 0.000, 0.000, 0.000, 21:23:14.827, 1541902994827
132, 40342.84, 15383.30, -187500.02, -187500.02, -187500.02, -187500.02, -187500.02, -187500.02, 0.000, 0.000, 0.000, 21:23:14.827, 1541902994827
133, 40266.75, 15296.95, -187500.02, -187500.02, -187500.02, -187500.02, -187500.02, -187500.02, 0.000, 0.000, 0.000, 21:23:14.827, 1541902994827
134, 40680.38, 15777.27, -187500.02, -187500.02, -187500.02, -187500.02, -187500.02, -187500.02, 0.000, 0.000, 0.000, 21:23:14.827, 1541902994827
135, 40841.98, 15968.40, -187500.02, -187500.02, -187500.02, -187500.02, -187500.02, -187500.02, 0.000, 0.000, 0.000, 21:23:14.827, 1541902994827
136, 40426.32, 15465.42, -187500.02, -187500.02, -187500.02, -187500.02, -187500.02, -187500.02, 0.000, 0.000, 0.000, 21:23:14.827, 1541902994827
137, 40280.84, 15299.19, -187500.02, -187500.02, -187500.02, -187500.02, -187500.02, -187500.02, 0.000, 0.000, 0.000, 21:23:14.827, 1541902994827
138, 40609.16, 15697.25, -187500.02, -187500.02, -187500.02, -187500.02, -187500.02, -187500.02, 0.000, 0.000, 0.000, 21:23:14.827, 1541902994827
139, 40889.88, 16030.16, -187500.02, -187500.02, -187500.02, -187500.02, -187500.02, -187500.02, 0.300, 0.680, 0.604, 21:23:14.829, 1541902994829
140, 40490.09, 15551.36, -187500.02, -187500.02, -187500.02, -187500.02, -187500.02, -187500.02, 0.000, 0.000, 0.000, 21:23:14.829, 1541902994829
141, 40250.93, 15278.94, -187500.02, -187500.02, -187500.02, -187500.02, -187500.02, -187500.02, 0.000, 0.000, 0.000, 21:23:14.829, 1541902994829
142, 40512.94, 15583.77, -187500.02, -187500.02, -187500.02, -187500.02, -187500.02, -187500.02, 0.000, 0.000, 0.000, 21:23:14.830, 1541902994830
143, 40884.31, 16032.21, -187500.02, -187500.02, -187500.02, -187500.02, -187500.02, -187500.02, 0.000, 0.000, 0.000, 21:23:14.830, 1541902994830
144, 40581.78, 15663.23, -187500.02, -187500.02, -187500.02, -187500.02, -187500.02, -187500.02, 0.000, 0.000, 0.000, 21:23:14.832, 1541902994832
145, 40279.83, 15288.88, -187500.02, -187500.02, -187500.02, -187500.02, -187500.02, -187500.02, 0.000, 0.000, 0.000, 21:23:14.833, 1541902994833
146, 40435.73, 15472.68, -187500.02, -187500.02, -187500.02, -187500.02, -187500.02, -187500.02, 0.000, 0.000, 0.000, 21:23:14.833, 1541902994833
147, 40854.09, 15984.22, -187500.02, -187500.02, -187500.02, -187500.02, -187500.02, -187500.02, 0.000, 0.000, 0.000, 21:23:14.834, 1541902994834
148, 40633.86, 15732.74, -187500.02, -187500.02, -187500.02, -187500.02, -187500.02, -187500.02, 0.000, 0.000, 0.000, 21:23:14.834, 1541902994834
149, 40262.73, 15296.26, -187500.02, -187500.02, -187500.02, -187500.02, -187500.02, -187500.02, 0.300, 0.676, 0.604, 21:23:14.834, 1541902994834
150, 40354.22, 15402.45, -187500.02, -187500.02, -187500.02, -187500.02, -187500.02, -187500.02, 0.000, 0.000, 0.000, 21:23:14.834, 1541902994834
151, 40807.00, 15943.90, -187500.02, -187500.02, -187500.02, -187500.02, -187500.02, -187500.02, 0.000, 0.000, 0.000, 21:23:14.834, 1541902994834
152, 40728.16, 15845.06, -187500.02, -187500.02, -187500.02, -187500.02, -187500.02, -187500.02, 0.000, 0.000, 0.000, 21:23:14.834, 1541902994834
153, 40308.31, 15340.43, -187500.02, -187500.02, -187500.02, -187500.02, -187500.02, -187500.02, 0.000, 0.000, 0.000, 21:23:14.834, 1541902994834
154, 40297.18, 15355.78, -187500.02, -187500.02, -187500.02, -187500.02, -187500.02, -187500.02, 0.000, 0.000, 0.000, 21:23:14.834, 1541902994834
155, 40728.41, 15856.17, -187500.02, -187500.02, -187500.02, -187500.02, -187500.02, -187500.02, 0.000, 0.000, 0.000, 21:23:14.834, 1541902994834
156, 40783.80, 15906.01, -187500.02, -187500.02, -187500.02, -187500.02, -187500.02, -187500.02, 0.000, 0.000, 0.000, 21:23:14.834, 1541902994834
157, 40369.28, 15388.19, -187500.02, -187500.02, -187500.02, -187500.02, -187500.02, -187500.02, 0.000, 0.000, 0.000, 21:23:14.835, 1541902994835
158, 40283.86, 15294.61, -187500.02, -187500.02, -187500.02, -187500.02, -187500.02, -187500.02, 0.000, 0.000, 0.000, 21:23:14.835, 1541902994835
230, 40596.89, 15775.88, -187500.02, -187500.02, -187500.02, -187500.02, -187500.02, -187500.02, 0.286, 0.676, 0.606, 21:23:15.545, 1541902995545
231, 40746.74, 15949.49, -187500.02, -187500.02, -187500.02, -187500.02, -187500.02, -187500.02, 0.000, 0.000, 0.000, 21:23:15.546, 1541902995546
232, 40308.55, 15427.35, -187500.02, -187500.02, -187500.02, -187500.02, -187500.02, -187500.02, 0.000, 0.000, 0.000, 21:23:15.546, 1541902995546
233, 40169.19, 15257.43, -187500.02, -187500.02, -187500.02, -187500.02, -187500.02, -187500.02, 0.000, 0.000, 0.000, 21:23:15.546, 1541902995546
234, 40530.33, 15672.86, -187500.02, -187500.02, -187500.02, -187500.02, -187500.02, -187500.02, 0.000, 0.000, 0.000, 21:23:15.547, 1541902995547
235, 40781.36, 15974.08, -187500.02, -187500.02, -187500.02, -187500.02, -187500.02, -187500.02, 0.000, 0.000, 0.000, 21:23:15.547, 1541902995547
236, 40368.99, 15479.30, -187500.02, -187500.02, -187500.02, -187500.02, -187500.02, -187500.02, 0.000, 0.000, 0.000, 21:23:15.547, 1541902995547
237, 40154.19, 15229.47, -187500.02, -187500.02, -187500.02, -187500.02, -187500.02, -187500.02, 0.000, 0.000, 0.000, 21:23:15.547, 1541902995547
238, 40437.19, 15583.99, -187500.02, -187500.02, -187500.02, -187500.02, -187500.02, -187500.02, 0.000, 0.000, 0.000, 21:23:15.547, 1541902995547
239, 40800.79, 16018.15, -187500.02, -187500.02, -187500.02, -187500.02, -187500.02, -187500.02, 0.000, 0.000, 0.000, 21:23:15.548, 1541902995548
240, 40452.92, 15601.83, -187500.02, -187500.02, -187500.02, -187500.02, -187500.02, -187500.02, 0.284, 0.684, 0.596, 21:23:15.548, 1541902995548
241, 40148.36, 15241.32, -187500.02, -187500.02, -187500.02, -187500.02, -187500.02, -187500.02, 0.000, 0.000, 0.000, 21:23:15.548, 1541902995548
242, 40349.32, 15473.62, -187500.02, -187500.02, -187500.02, -187500.02, -187500.02, -187500.02, 0.000, 0.000, 0.000, 21:23:15.548, 1541902995548
243, 40777.31, 15987.02, -187500.02, -187500.02, -187500.02, -187500.02, -187500.02, -187500.02, 0.000, 0.000, 0.000, 21:23:15.548, 1541902995548
244, 40515.31, 15697.25, -187500.02, -187500.02, -187500.02, -187500.02, -187500.02, -187500.02, 0.000, 0.000, 0.000, 21:23:15.549, 1541902995549
245, 40147.55, 15259.42, -187500.02, -187500.02, -187500.02, -187500.02, -187500.02, -187500.02, 0.000, 0.000, 0.000, 21:23:15.549, 1541902995549
246, 40265.46, 15396.04, -187500.02, -187500.02, -187500.02, -187500.02, -187500.02, -187500.02, 0.000, 0.000, 0.000, 21:23:15.549, 1541902995549
247, 40726.91, 15951.34, -187500.02, -187500.02, -187500.02, -187500.02, -187500.02, -187500.02, 0.000, 0.000, 0.000, 21:23:15.549, 1541902995549
248, 40614.44, 15827.45, -187500.02, -187500.02, -187500.02, -187500.02, -187500.02, -187500.02, 0.000, 0.000, 0.000, 21:23:15.549, 1541902995549
249, 40203.84, 15320.09, -187500.02, -187500.02, -187500.02, -187500.02, -187500.02, -187500.02, 0.000, 0.000, 0.000, 21:23:15.549, 1541902995549
250, 40224.18, 15337.07, -187500.02, -187500.02, -187500.02, -187500.02, -187500.02, -187500.02, 0.290, 0.684, 0.594, 21:23:15.549, 1541902995549
251, 40670.25, 15873.60, -187500.02, -187500.02, -187500.02, -187500.02, -187500.02, -187500.02, 0.000, 0.000, 0.000, 21:23:15.549, 1541902995549
252, 40687.08, 15905.34, -187500.02, -187500.02, -187500.02, -187500.02, -187500.02, -187500.02, 0.000, 0.000, 0.000, 21:23:15.549, 1541902995549
253, 40230.70, 15362.20, -187500.02, -187500.02, -187500.02, -187500.02, -187500.02, -187500.02, 0.000, 0.000, 0.000, 21:23:15.549, 1541902995549
254, 40161.01, 15274.24, -187500.02, -187500.02, -187500.02, -187500.02, -187500.02, -187500.02, 0.000, 0.000, 0.000, 21:23:15.549, 1541902995549
255, 40572.95, 15761.69, -187500.02, -187500.02, -187500.02, -187500.02, -187500.02, -187500.02, 0.000, 0.000, 0.000, 21:23:15.549, 1541902995549
0, 40737.57, 15966.34, -187500.02, -187500.02, -187500.02, -187500.02, -187500.02, -187500.02, 0.000, 0.000, 0.000, 21:23:15.549, 1541902995549
1, 40296.86, 15433.32, -187500.02, -187500.02, -187500.02, -187500.02, -187500.02, -187500.02, 0.000, 0.000, 0.000, 21:23:15.549, 1541902995549
2, 40165.93, 15262.06, -187500.02, -187500.02, -187500.02, -187500.02, -187500.02, -187500.02, 0.000, 0.000, 0.000, 21:23:15.549, 1541902995549
3, 40535.36, 15693.94, -187500.02, -187500.02, -187500.02, -187500.02, -187500.02, -187500.02, 0.000, 0.000, 0.000, 21:23:15.549, 1541902995549
4, 40808.67, 16040.13, -187500.02, -187500.02, -187500.02, -187500.02, -187500.02, -187500.02, 0.300, 0.682, 0.596, 21:23:15.550, 1541902995550
5, 40370.98, 15558.24, -187500.02, -187500.02, -187500.02, -187500.02, -187500.02, -187500.02, 0.000, 0.000, 0.000, 21:23:15.550, 1541902995550
6, 40142.12, 15295.70, -187500.02, -187500.02, -187500.02, -187500.02, -187500.02, -187500.02, 0.000, 0.000, 0.000, 21:23:15.550, 1541902995550
7, 40415.44, 15617.05, -187500.02, -187500.02, -187500.02, -187500.02, -187500.02, -187500.02, 0.000, 0.000, 0.000, 21:23:15.550, 1541902995550
8, 40785.03, 16049.25, -187500.02, -187500.02, -187500.02, -187500.02, -187500.02, -187500.02, 0.000, 0.000, 0.000, 21:23:15.559, 1541902995559
9, 40466.47, 15664.82, -187500.02, -187500.02, -187500.02, -187500.02, -187500.02, -187500.02, 0.000, 0.000, 0.000, 21:23:15.559, 1541902995559
10, 40162.71, 15299.34, -187500.02, -187500.02, -187500.02, -187500.02, -187500.02, -187500.02, 0.000, 0.000, 0.000, 21:23:15.560, 1541902995560
11, 40341.28, 15526.59, -187500.02, -187500.02, -187500.02, -187500.02, -187500.02, -187500.02, 0.000, 0.000, 0.000, 21:23:15.560, 1541902995560
12, 40753.84, 16027.36, -187500.02, -187500.02, -187500.02, -187500.02, -187500.02, -187500.02, 0.000, 0.000, 0.000, 21:23:15.561, 1541902995561
13, 40532.72, 15756.73, -187500.02, -187500.02, -187500.02, -187500.02, -187500.02, -187500.02, 0.000, 0.000, 0.000, 21:23:15.561, 1541902995561
14, 40185.60, 15316.62, -187500.02, -187500.02, -187500.02, -187500.02, -187500.02, -187500.02, 0.000, 0.000, 0.000, 21:23:15.561, 1541902995561
15, 40278.65, 15448.03, -187500.02, -187500.02, -187500.02, -187500.02, -187500.02, -187500.02, 0.304, 0.674, 0.604, 21:23:15.562, 1541902995562
16, 40738.80, 15992.99, -187500.02, -187500.02, -187500.02, -187500.02, -187500.02, -187500.02, 0.000, 0.000, 0.000, 21:23:15.562, 1541902995562
17, 40626.15, 15869.31, -187500.02, -187500.02, -187500.02, -187500.02, -187500.02, -187500.02, 0.000, 0.000, 0.000, 21:23:15.562, 1541902995562
18, 40213.78, 15392.71, -187500.02, -187500.02, -187500.02, -187500.02, -187500.02, -187500.02, 0.000, 0.000, 0.000, 21:23:15.563, 1541902995563
19, 40224.15, 15397.58, -187500.02, -187500.02, -187500.02, -187500.02, -187500.02, -187500.02, 0.000, 0.000, 0.000, 21:23:15.564, 1541902995564
20, 40671.59, 15905.57, -187500.02, -187500.02, -187500.02, -187500.02, -187500.02, -187500.02, 0.000, 0.000, 0.000, 21:23:15.564, 1541902995564
21, 40723.56, 15959.17, -187500.02, -187500.02, -187500.02, -187500.02, -187500.02, -187500.02, 0.000, 0.000, 0.000, 21:23:15.565, 1541902995565
22, 40287.41, 15442.55, -187500.02, -187500.02, -187500.02, -187500.02, -187500.02, -187500.02, 0.000, 0.000, 0.000, 21:23:15.565, 1541902995565
23, 40196.82, 15351.16, -187500.02, -187500.02, -187500.02, -187500.02, -187500.02, -187500.02, 0.000, 0.000, 0.000, 21:23:15.565, 1541902995565
24, 40591.84, 15815.89, -187500.02, -187500.02, -187500.02, -187500.02, -187500.02, -187500.02, 0.000, 0.000, 0.000, 21:23:15.565, 1541902995565
25, 40784.04, 16031.97, -187500.02, -187500.02, -187500.02, -187500.02, -187500.02, -187500.02, 0.292, 0.684, 0.626, 21:23:15.565, 1541902995565
26, 40347.47, 15516.16, -187500.02, -187500.02, -187500.02, -187500.02, -187500.02, -187500.02, 0.000, 0.000, 0.000, 21:23:15.566, 1541902995566
27, 40173.26, 15316.11, -187500.02, -187500.02, -187500.02, -187500.02, -187500.02, -187500.02, 0.000, 0.000, 0.000, 21:23:15.566, 1541902995566
28, 40502.43, 15711.44, -187500.02, -187500.02, -187500.02, -187500.02, -187500.02, -187500.02, 0.000, 0.000, 0.000, 21:23:15.566, 1541902995566
29, 40814.64, 16077.97, -187500.02, -187500.02, -187500.02, -187500.02, -187500.02, -187500.02, 0.000, 0.000, 0.000, 21:23:15.566, 1541902995566
30, 40432.00, 15622.37, -187500.02, -187500.02, -187500.02, -187500.02, -187500.02, -187500.02, 0.000, 0.000, 0.000, 21:23:15.566, 1541902995566
31, 40181.57, 15333.25, -187500.02, -187500.02, -187500.02, -187500.02, -187500.02, -187500.02, 0.000, 0.000, 0.000, 21:23:15.566, 1541902995566
32, 40427.06, 15613.05, -187500.02, -187500.02, -187500.02, -187500.02, -187500.02, -187500.02, 0.000, 0.000, 0.000, 21:23:15.566, 1541902995566
33, 40835.59, 16097.93, -187500.02, -187500.02, -187500.02, -187500.02, -187500.02, -187500.02, 0.000, 0.000, 0.000, 21:23:15.566, 1541902995566
34, 40511.51, 15716.96, -187500.02, -187500.02, -187500.02, -187500.02, -187500.02, -187500.02, 0.000, 0.000, 0.000, 21:23:15.566, 1541902995566
35, 40192.05, 15327.35, -187500.02, -187500.02, -187500.02, -187500.02, -187500.02, -187500.02, 0.276, 0.668, 0.622, 21:23:15.567, 1541902995567
36, 40335.04, 15511.73, -187500.02, -187500.02, -187500.02, -187500.02, -187500.02, -187500.02, 0.000, 0.000, 0.000, 21:23:15.567, 1541902995567
37, 40783.15, 16051.86, -187500.02, -187500.02, -187500.02, -187500.02, -187500.02, -187500.02, 0.000, 0.000, 0.000, 21:23:15.568, 1541902995568
38, 40575.16, 15809.97, -187500.02, -187500.02, -187500.02, -187500.02, -187500.02, -187500.02, 0.000, 0.000, 0.000, 21:23:15.568, 1541902995568
39, 40194.45, 15349.57, -187500.02, -187500.02, -187500.02, -187500.02, -187500.02, -187500.02, 0.000, 0.000, 0.000, 21:23:15.568, 1541902995568
40, 40280.59, 15450.22, -187500.02, -187500.02, -187500.02, -187500.02, -187500.02, -187500.02, 0.000, 0.000, 0.000, 21:23:15.568, 1541902995568
41, 40747.86, 15993.92, -187500.02, -187500.02, -187500.02, -187500.02, -187500.02, -187500.02, 0.000, 0.000, 0.000, 21:23:15.569, 1541902995569
42, 40677.89, 15916.72, -187500.02, -187500.02, -187500.02, -187500.02, -187500.02, -187500.02, 0.000, 0.000, 0.000, 21:23:15.569, 1541902995569
43, 40249.12, 15406.92, -187500.02, -187500.02, -187500.02, -187500.02, -187500.02, -187500.02, 0.000, 0.000, 0.000, 21:23:15.570, 1541902995570
44, 40239.78, 15387.05, -187500.02, -187500.02, -187500.02, -187500.02, -187500.02, -187500.02, 0.000, 0.000, 0.000, 21:23:15.570, 1541902995570
45, 40663.95, 15897.28, -187500.02, -187500.02, -187500.02, -187500.02, -187500.02, -187500.02, 0.278, 0.674, 0.620, 21:23:15.570, 1541902995570
46, 40719.02, 15981.88, -187500.02, -187500.02, -187500.02, -187500.02, -187500.02, -187500.02, 0.000, 0.000, 0.000, 21:23:15.570, 1541902995570
47, 40274.02, 15457.93, -187500.02, -187500.02, -187500.02, -187500.02, -187500.02, -187500.02, 0.000, 0.000, 0.000, 21:23:15.570, 1541902995570
48, 40181.82, 15337.19, -187500.02, -187500.02, -187500.02, -187500.02, -187500.02, -187500.02, 0.000, 0.000, 0.000, 21:23:15.570, 1541902995570
49, 40555.36, 15776.46, -187500.02, -187500.02, -187500.02, -187500.02, -187500.02, -187500.02, 0.000, 0.000, 0.000, 21:23:15.571, 1541902995571
50, 40788.91, 16049.51, -187500.02, -187500.02, -187500.02, -187500.02, -187500.02, -187500.02, 0.000, 0.000, 0.000, 21:23:15.571, 1541902995571
51, 40383.50, 15557.73, -187500.02, -187500.02, -187500.02, -187500.02, -187500.02, -187500.02, 0.000, 0.000, 0.000, 21:23:15.571, 1541902995571
52, 40164.99, 15315.28, -187500.02, -187500.02, -187500.02, -187500.02, -187500.02, -187500.02, 0.000, 0.000, 0.000, 21:23:15.571, 1541902995571
53, 40470.54, 15681.60, -187500.02, -187500.02, -187500.02, -187500.02, -187500.02, -187500.02, 0.000, 0.000, 0.000, 21:23:15.571, 1541902995571
54, 40786.52, 16063.75, -187500.02, -187500.02, -187500.02, -187500.02, -187500.02, -187500.02, 0.000, 0.000, 0.000, 21:23:15.571, 1541902995571
55, 40421.18, 15624.61, -187500.02, -187500.02, -187500.02, -187500.02, -187500.02, -187500.02, 0.276, 0.692, 0.608, 21:23:15.571, 1541902995571
56, 40163.91, 15316.67, -187500.02, -187500.02, -187500.02, -187500.02, -187500.02, -187500.02, 0.000, 0.000, 0.000, 21:23:15.571, 1541902995571
57, 40391.10, 15584.78, -187500.02, -187500.02, -187500.02, -187500.02, -187500.02, -187500.02, 0.000, 0.000, 0.000, 21:23:15.571, 1541902995571
58, 40796.80, 16067.13, -187500.02, -187500.02, -187500.02, -187500.02, -187500.02, -187500.02, 0.000, 0.000, 0.000, 21:23:15.572, 1541902995572
59, 40519.66, 15724.47, -187500.02, -187500.02, -187500.02, -187500.02, -187500.02, -187500.02, 0.000, 0.000, 0.000, 21:23:15.572, 1541902995572
60, 40189.04, 15337.79, -187500.02, -187500.02, -187500.02, -187500.02, -187500.02, -187500.02, 0.000, 0.000, 0.000, 21:23:15.572, 1541902995572
61, 40324.29, 15511.98, -187500.02, -187500.02, -187500.02, -187500.02, -187500.02, -187500.02, 0.000, 0.000, 0.000, 21:23:15.572, 1541902995572
62, 40751.27, 16028.88, -187500.02, -187500.02, -187500.02, -187500.02, -187500.02, -187500.02, 0.000, 0.000, 0.000, 21:23:15.573, 1541902995573
63, 40572.21, 15818.91, -187500.02, -187500.02, -187500.02, -187500.02, -187500.02, -187500.02, 0.000, 0.000, 0.000, 21:23:15.573, 1541902995573
64, 40175.56, 15346.13, -187500.02, -187500.02, -187500.02, -187500.02, -187500.02, -187500.02, 0.000, 0.000, 0.000, 21:23:15.573, 1541902995573
65, 40239.89, 15418.63, -187500.02, -187500.02, -187500.02, -187500.02, -187500.02, -187500.02, 0.288, 0.702, 0.602, 21:23:15.573, 1541902995573
66, 40700.27, 15956.91, -187500.02, -187500.02, -187500.02, -187500.02, -187500.02, -187500.02, 0.000, 0.000, 0.000, 21:23:15.574, 1541902995574
67, 40653.39, 15903.80, -187500.02, -187500.02, -187500.02, -187500.02, -187500.02, -187500.02, 0.000, 0.000, 0.000, 21:23:15.574, 1541902995574
68, 40224.20, 15391.32, -187500.02, -187500.02, -187500.02, -187500.02, -187500.02, -187500.02, 0.000, 0.000, 0.000, 21:23:15.574, 1541902995574
69, 40204.66, 15369.15, -187500.02, -187500.02, -187500.02, -187500.02, -187500.02, -187500.02, 0.000, 0.000, 0.000, 21:23:15.574, 1541902995574
70, 40613.70, 15853.18, -187500.02, -187500.02, -187500.02, -187500.02, -187500.02, -187500.02, 0.000, 0.000, 0.000, 21:23:15.574, 1541902995574
71, 40713.93, 15991.02, -187500.02, -187500.02, -187500.02, -187500.02, -187500.02, -187500.02, 0.000, 0.000, 0.000, 21:23:15.575, 1541902995575
72, 40278.49, 15487.50, -187500.02, -187500.02, -187500.02, -187500.02, -187500.02, -187500.02, 0.000, 0.000, 0.000, 21:23:15.575, 1541902995575
73, 40158.42, 15326.77, -187500.02, -187500.02, -187500.02, -187500.02, -187500.02, -187500.02, 0.000, 0.000, 0.000, 21:23:15.576, 1541902995576
74, 40536.23, 15770.65, -187500.02, -187500.02, -187500.02, -187500.02, -187500.02, -187500.02, 0.000, 0.000, 0.000, 21:23:15.576, 1541902995576
75, 40768.13, 16053.71, -187500.02, -187500.02, -187500.02, -187500.02, -187500.02, -187500.02, 0.292, 0.688, 0.604, 21:23:15.576, 1541902995576
76, 40346.82, 15552.54, -187500.02, -187500.02, -187500.02, -187500.02, -187500.02, -187500.02, 0.000, 0.000, 0.000, 21:23:15.576, 1541902995576
77, 40156.47, 15333.50, -187500.02, -187500.02, -187500.02, -187500.02, -187500.02, -187500.02, 0.000, 0.000, 0.000, 21:23:15.576, 1541902995576
78, 40479.63, 15709.30, -187500.02, -187500.02, -187500.02, -187500.02, -187500.02, -187500.02, 0.000, 0.000, 0.000, 21:23:15.576, 1541902995576
79, 40833.60, 16112.12, -187500.02, -187500.02, -187500.02, -187500.02, -187500.02, -187500.02, 0.000, 0.000, 0.000, 21:23:15.576, 1541902995576
80, 40464.43, 15696.58, -187500.02, -187500.02, -187500.02, -187500.02, -187500.02, -187500.02, 0.000, 0.000, 0.000, 21:23:15.576, 1541902995576
81, 40193.11, 15379.43, -187500.02, -187500.02, -187500.02, -187500.02, -187500.02, -187500.02, 0.000, 0.000, 0.000, 21:23:15.576, 1541902995576
82, 40422.84, 15646.44, -187500.02, -187500.02, -187500.02, -187500.02, -187500.02, -187500.02, 0.000, 0.000, 0.000, 21:23:15.576, 1541902995576
83, 40844.93, 16142.27, -187500.02, -187500.02, -187500.02, -187500.02, -187500.02, -187500.02, 0.000, 0.000, 0.000, 21:23:15.576, 1541902995576
84, 40571.99, 15810.42, -187500.02, -187500.02, -187500.02, -187500.02, -187500.02, -187500.02, 0.000, 0.000, 0.000, 21:23:15.577, 1541902995577
85, 40221.25, 15385.02, -187500.02, -187500.02, -187500.02, -187500.02, -187500.02, -187500.02, 0.000, 0.000, 0.000, 21:23:15.577, 1541902995577
86, 40370.94, 15567.68, -187500.02, -187500.02, -187500.02, -187500.02, -187500.02, -187500.02, 0.286, 0.678, 0.608, 21:23:15.577, 1541902995577
87, 40837.66, 16115.79, -187500.02, -187500.02, -187500.02, -187500.02, -187500.02, -187500.02, 0.000, 0.000, 0.000, 21:23:15.577, 1541902995577
88, 40671.81, 15922.11, -187500.02, -187500.02, -187500.02, -187500.02, -187500.02, -187500.02, 0.000, 0.000, 0.000, 21:23:15.577, 1541902995577
89, 40283.79, 15464.61, -187500.02, -187500.02, -187500.02, -187500.02, -187500.02, -187500.02, 0.000, 0.000, 0.000, 21:23:15.577, 1541902995577
90, 40337.21, 15520.29, -187500.02, -187500.02, -187500.02, -187500.02, -187500.02, -187500.02, 0.000, 0.000, 0.000, 21:23:15.577, 1541902995577
91, 40806.66, 16063.39, -187500.02, -187500.02, -187500.02, -187500.02, -187500.02, -187500.02, 0.000, 0.000, 0.000, 21:23:15.577, 1541902995577
92, 40770.05, 16028.14, -187500.02, -187500.02, -187500.02, -187500.02, -187500.02, -187500.02, 0.000, 0.000, 0.000, 21:23:15.577, 1541902995577
93, 40340.92, 15510.63, -187500.02, -187500.02, -187500.02, -187500.02, -187500.02, -187500.02, 0.000, 0.000, 0.000, 21:23:15.577, 1541902995577
94, 40301.82, 15457.48, -187500.02, -187500.02, -187500.02, -187500.02, -187500.02, -187500.02, 0.000, 0.000, 0.000, 21:23:16.025, 1541902996025
95, 40702.28, 15939.45, -187500.02, -187500.02, -187500.02, -187500.02, -187500.02, -187500.02, 0.000, 0.000, 0.000, 21:23:16.025, 1541902996025
96, 40803.46, 16071.55, -187500.02, -187500.02, -187500.02, -187500.02, -187500.02, -187500.02, 0.292, 0.678, 0.594, 21:23:16.026, 1541902996026
97, 40376.35, 15556.84, -187500.02, -187500.02, -187500.02, -187500.02, -187500.02, -187500.02, 0.000, 0.000, 0.000, 21:23:16.026, 1541902996026
98, 40259.27, 15406.79, -187500.02, -187500.02, -187500.02, -187500.02, -187500.02, -187500.02, 0.000, 0.000, 0.000, 21:23:16.026, 1541902996026
99, 40614.97, 15828.25, -187500.02, -187500.02, -187500.02, -187500.02, -187500.02, -187500.02, 0.000, 0.000, 0.000, 21:23:16.026, 1541902996026
100, 40867.93, 16153.90, -187500.02, -187500.02, -187500.02, -187500.02, -187500.02, -187500.02, 0.000, 0.000, 0.000, 21:23:16.026, 1541902996026
101, 40478.07, 15686.81, -187500.02, -187500.02, -187500.02, -187500.02, -187500.02, -187500.02, 0.000, 0.000, 0.000, 21:23:16.026, 1541902996026
102, 40237.81, 15412.56, -187500.02, -187500.02, -187500.02, -187500.02, -187500.02, -187500.02, 0.000, 0.000, 0.000, 21:23:16.026, 1541902996026
103, 40520.70, 15748.08, -187500.02, -187500.02, -187500.02, -187500.02, -187500.02, -187500.02, 0.000, 0.000, 0.000, 21:23:16.026, 1541902996026
104, 40892.79, 16189.68, -187500.02, -187500.02, -187500.02, -187500.02, -187500.02, -187500.02, 0.000, 0.000, 0.000, 21:23:16.026, 1541902996026
105, 40562.83, 15785.38, -187500.02, -187500.02, -187500.02, -187500.02, -187500.02, -187500.02, 0.000, 0.000, 0.000, 21:23:16.026, 1541902996026
106, 40292.66, 15449.39, -187500.02, -187500.02, -187500.02, -187500.02, -187500.02, -187500.02, 0.290, 0.660, 0.596, 21:23:16.026, 1541902996026
107, 40502.50, 15700.92, -187500.02, -187500.02, -187500.02, -187500.02, -187500.02, -187500.02, 0.000, 0.000, 0.000, 21:23:16.027, 1541902996027
108, 40911.92, 16190.69, -187500.02, -187500.02, -187500.02, -187500.02, -187500.02, -187500.02, 0.000, 0.000, 0.000, 21:23:16.027, 1541902996027
109, 40643.09, 15875.93, -187500.02, -187500.02, -187500.02, -187500.02, -187500.02, -187500.02, 0.000, 0.000, 0.000, 21:23:16.027, 1541902996027
110, 40264.12, 15430.08, -187500.02, -187500.02, -187500.02, -187500.02, -187500.02, -187500.02, 0.000, 0.000, 0.000, 21:23:16.027, 1541902996027
111, 40379.92, 15570.38, -187500.02, -187500.02, -187500.02, -187500.02, -187500.02, -187500.02, 0.000, 0.000, 0.000, 21:23:16.027, 1541902996027
112, 40843.30, 16124.68, -187500.02, -187500.02, -187500.02, -187500.02, -187500.02, -187500.02, 0.000, 0.000, 0.000, 21:23:16.027, 1541902996027
113, 40724.45, 15979.17, -187500.02, -187500.02, -187500.02, -187500.02, -187500.02, -187500.02, 0.000, 0.000, 0.000, 21:23:16.027, 1541902996027
114, 40332.71, 15507.48, -187500.02, -187500.02, -187500.02, -187500.02, -187500.02, -187500.02, 0.000, 0.000, 0.000, 21:23:16.027, 1541902996027
115, 40363.65, 15555.96, -187500.02, -187500.02, -187500.02, -187500.02, -187500.02, -187500.02, 0.000, 0.000, 0.000, 21:23:16.027, 1541902996027
116, 40801.43, 16072.38, -187500.02, -187500.02, -187500.02, -187500.02, -187500.02, -187500.02, 0.296, 0.688, 0.598, 21:23:16.027, 1541902996027
117, 40809.16, 16075.69, -187500.02, -187500.02, -187500.02, -187500.02, -187500.02, -187500.02, 0.000, 0.000, 0.000, 21:23:16.027, 1541902996027
118, 40380.97, 15576.97, -187500.02, -187500.02, -187500.02, -187500.02, -187500.02, -187500.02, 0.000, 0.000, 0.000, 21:23:16.027, 1541902996027
119, 40327.57, 15517.32, -187500.02, -187500.02, -187500.02, -187500.02, -187500.02, -187500.02, 0.000, 0.000, 0.000, 21:23:16.028, 1541902996028
120, 40736.57, 15986.84, -187500.02, -187500.02, -187500.02, -187500.02, -187500.02, -187500.02, 0.000, 0.000, 0.000, 21:23:16.028, 1541902996028
121, 40892.02, 16169.88, -187500.02, -187500.02, -187500.02, -187500.02, -187500.02, -187500.02, 0.000, 0.000, 0.000, 21:23:16.028, 1541902996028
122, 40463.38, 15644.72, -187500.02, -187500.02, -187500.02, -187500.02, -187500.02, -187500.02, 0.000, 0.000, 0.000, 21:23:16.028, 1541902996028
123, 40295.84, 15453.68, -187500.02, -187500.02, -187500.02, -187500.02, -187500.02, -187500.02, 0.000, 0.000, 0.000, 21:23:16.028, 1541902996028
124, 40631.96, 15867.59, -187500.02, -187500.02, -187500.02, -187500.02, -187500.02, -187500.02, 0.000, 0.000, 0.000, 21:23:16.028, 1541902996028
125, 40901.99, 16200.63, -187500.02, -187500.02, -187500.02, -187500.02, -187500.02, -187500.02, 0.000, 0.000, 0.000, 21:23:16.028, 1541902996028
126, 40509.83, 15729.21, -187500.02, -187500.02, -187500.02, -187500.02, -187500.02, -187500.02, 0.294, 0.690, 0.596, 21:23:16.028, 1541902996028
127, 40297.82, 15474.92, -187500.02, -187500.02, -187500.02, -187500.02, -187500.02, -187500.02, 0.000, 0.000, 0.000, 21:23:16.028, 1541902996028
128, 40563.77, 15802.21, -187500.02, -187500.02, -187500.02, -187500.02, -187500.02, -187500.02, 0.000, 0.000, 0.000, 21:23:16.028, 1541902996028
129, 40905.95, 16221.67, -187500.02, -187500.02, -187500.02, -187500.02, -187500.02, -187500.02, 0.000, 0.000, 0.000, 21:23:16.028, 1541902996028
130, 40571.50, 15814.15, -187500.02, -187500.02, -187500.02, -187500.02, -187500.02, -187500.02, 0.000, 0.000, 0.000, 21:23:16.028, 1541902996028
131, 40279.61, 15450.29, -187500.02, -187500.02, -187500.02, -187500.02, -187500.02, -187500.02, 0.000, 0.000, 0.000, 21:23:16.029, 1541902996029
132, 40484.55, 15690.68, -187500.02, -187500.02, -187500.02, -187500.02, -187500.02, -187500.02, 0.000, 0.000, 0.000, 21:23:16.029, 1541902996029
133, 40932.35, 16215.50, -187500.02, -187500.02, -187500.02, -187500.02, -187500.02, -187500.02, 0.000, 0.000, 0.000, 21:23:16.029, 1541902996029
134, 40688.22, 15921.75, -187500.02, -187500.02, -187500.02, -187500.02, -187500.02, -187500.02, 0.000, 0.000, 0.000, 21:23:16.029, 1541902996029
135, 40317.23, 15484.13, -187500.02, -187500.02, -187500.02, -187500.02, -187500.02, -187500.02, 0.000, 0.000, 0.000, 21:23:16.029, 1541902996029
136, 40413.03, 15603.48, -187500.02, -187500.02, -187500.02, -187500.02, -187500.02, -187500.02, 0.288, 0.706, 0.602, 21:23:16.029, 1541902996029
137, 40864.64, 16144.40, -187500.02, -187500.02, -187500.02, -187500.02, -187500.02, -187500.02, 0.000, 0.000, 0.000, 21:23:16.029, 1541902996029
138, 40753.46, 16019.47, -187500.02, -187500.02, -187500.02, -187500.02, -187500.02, -187500.02, 0.000, 0.000, 0.000, 21:23:16.029, 1541902996029
139, 40336.00, 15523.02, -187500.02, -187500.02, -187500.02, -187500.02, -187500.02, -187500.02, 0.000, 0.000, 0.000, 21:23:16.029, 1541902996029
140, 40355.49, 15549.62, -187500.02, -187500.02, -187500.02, -187500.02, -187500.02, -187500.02, 0.000, 0.000, 0.000, 21:23:16.029, 1541902996029
141, 40815.20, 16088.34, -187500.02, -187500.02, -187500.02, -187500.02, -187500.02, -187500.02, 0.000, 0.000, 0.000, 21:23:16.029, 1541902996029
142, 40848.37, 16132.62, -187500.02, -187500.02, -187500.02, -187500.02, -187500.02, -187500.02, 0.000, 0.000, 0.000, 21:23:16.029, 1541902996029
143, 40407.41, 15594.72, -187500.02, -187500.02, -187500.02, -187500.02, -187500.02, -187500.02, 0.000, 0.000, 0.000, 21:23:16.029, 1541902996029
144, 40319.77, 15503.19, -187500.02, -187500.02, -187500.02, -187500.02, -187500.02, -187500.02, 0.000, 0.000, 0.000, 21:23:16.030, 1541902996030
145, 40716.27, 15993.14, -187500.02, -187500.02, -187500.02, -187500.02, -187500.02, -187500.02, 0.000, 0.000, 0.000, 21:23:16.030, 1541902996030
146, 40901.55, 16212.70, -187500.02, -187500.02, -187500.02, -187500.02, -187500.02, -187500.02, 0.296, 0.690, 0.596, 21:23:16.030, 1541902996030
147, 40471.39, 15690.75, -187500.02, -187500.02, -187500.02, -187500.02, -187500.02, -187500.02, 0.000, 0.000, 0.000, 21:23:16.030, 1541902996030
148, 40291.36, 15473.15, -187500.02, -187500.02, -187500.02, -187500.02, -187500.02, -187500.02, 0.000, 0.000, 0.000, 21:23:16.030, 1541902996030
149, 40631.54, 15872.02, -187500.02, -187500.02, -187500.02, -187500.02, -187500.02, -187500.02, 0.000, 0.000, 0.000, 21:23:16.030, 1541902996030
150, 40933.66, 16234.79, -187500.02, -187500.02, -187500.02, -187500.02, -187500.02, -187500.02, 0.000, 0.000, 0.000, 21:23:16.031, 1541902996031
151, 40534.33, 15761.73, -187500.02, -187500.02, -187500.02, -187500.02, -187500.02, -187500.02, 0.000, 0.000, 0.000, 21:23:16.034, 1541902996034
152, 40288.64, 15483.86, -187500.02, -187500.02, -187500.02, -187500.02, -187500.02, -187500.02, 0.000, 0.000, 0.000, 21:23:16.034, 1541902996034
153, 40552.28, 15801.65, -187500.02, -187500.02, -187500.02, -187500.02, -187500.02, -187500.02, 0.000, 0.000, 0.000, 21:23:16.036, 1541902996036
154, 40944.91, 16265.57, -187500.02, -187500.02, -187500.02, -187500.02, -187500.02, -187500.02, 0.000, 0.000, 0.000, 21:23:16.036, 1541902996036
155, 40614.55, 15873.27, -187500.02, -187500.02, -187500.02, -187500.02, -187500.02, -187500.02, 0.000, 0.000, 0.000, 21:23:16.036, 1541902996036
156, 40295.68, 15503.64, -187500.02, -187500.02, -187500.02, -187500.02, -187500.02, -187500.02, 0.000, 0.000, 0.000, 21:23:16.036, 1541902996036
157, 40461.66, 15701.99, -187500.02, -187500.02, -187500.02, -187500.02, -187500.02, -187500.02, 0.294, 0.696, 0.592, 21:23:16.036, 1541902996036
158, 40891.69, 16204.59, -187500.02, -187500.02, -187500.02, -187500.02, -187500.02, -187500.02, 0.000, 0.000, 0.000, 21:23:16.036, 1541902996036
159, 40676.93, 15932.95, -187500.02, -187500.02, -187500.02, -187500.02, -187500.02, -187500.02, 0.000, 0.000, 0.000, 21:23:16.036, 1541902996036
160, 40290.00, 15463.96, -187500.02, -187500.02, -187500.02, -187500.02, -187500.02, -187500.02, 0.000, 0.000, 0.000, 21:23:16.037, 1541902996037
161, 40380.95, 15588.84, -187500.02, -187500.02, -187500.02, -187500.02, -187500.02, -187500.02, 0.000, 0.000, 0.000, 21:23:16.037, 1541902996037
162, 40834.20, 16159.17, -187500.02, -187500.02, -187500.02, -187500.02, -187500.02, -187500.02, 0.000, 0.000, 0.000, 21:23:16.037, 1541902996037
163, 40755.81, 16065.38, -187500.02, -187500.02, -187500.02, -187500.02, -187500.02, -187500.02, 0.000, 0.000, 0.000, 21:23:16.037, 1541902996037
164, 40350.13, 15565.91, -187500.02, -187500.02, -187500.02, -187500.02, -187500.02, -187500.02, 0.000, 0.000, 0.000, 21:23:16.037, 1541902996037
165, 40359.85, 15568.17, -187500.02, -187500.02, -187500.02, -187500.02, -187500.02, -187500.02, 0.000, 0.000, 0.000, 21:23:16.037, 1541902996037
166, 40770.43, 16057.92, -187500.02, -187500.02, -187500.02, -187500.02, -187500.02, -187500.02, 0.000, 0.000, 0.000, 21:23:16.037, 1541902996037
167, 40805.84, 16102.89, -187500.02, -187500.02, -187500.02, -187500.02, -187500.02, -187500.02, 0.284, 0.686, 0.596, 21:23:16.037, 1541902996037
168, 40339.46, 15562.13, -187500.02, -187500.02, -187500.02, -187500.02, -187500.02, -187500.02, 0.000, 0.000, 0.000, 21:23:16.037, 1541902996037
169, 40213.43, 15412.62, -187500.02, -187500.02, -187500.02, -187500.02, -187500.02, -187500.02, 0.000, 0.000, 0.000, 21:23:16.037, 1541902996037
170, 40591.64, 15840.14, -187500.02, -187500.02, -187500.02, -187500.02, -187500.02, -187500.02, 0.000, 0.000, 0.000, 21:23:16.037, 1541902996037
171, 40758.32, 16038.27, -187500.02, -187500.02, -187500.02, -187500.02, -187500.02, -187500.02, 0.000, 0.000, 0.000, 21:23:16.038, 1541902996038
172, 40302.14, 15519.17, -187500.02, -187500.02, -187500.02, -187500.02, -187500.02, -187500.02, 0.000, 0.000, 0.000, 21:23:16.038, 1541902996038
173, 40094.25, 15291.10, -187500.02, -187500.02, -187500.02, -187500.02, -187500.02, -187500.02, 0.000, 0.000, 0.000, 21:23:16.038, 1541902996038
174, 40400.53, 15646.31, -187500.02, -187500.02, -187500.02, -187500.02, -187500.02, -187500.02, 0.000, 0.000, 0.000, 21:23:16.038, 1541902996038
175, 40708.70, 16015.76, -187500.02, -187500.02, -187500.02, -187500.02, -187500.02, -187500.02, 0.000, 0.000, 0.000, 21:23:16.038, 1541902996038
176, 40340.96, 15559.47, -187500.02, -187500.02, -187500.02, -187500.02, -187500.02, -187500.02, 0.000, 0.000, 0.000, 21:23:16.038, 1541902996038
177, 40075.43, 15251.02, -187500.02, -187500.02, -187500.02, -187500.02, -187500.02, -187500.02, 0.284, 0.696, 0.592, 21:23:16.038, 1541902996038
178, 40297.91, 15540.85, -187500.02, -187500.02, -187500.02, -187500.02, -187500.02, -187500.02, 0.000, 0.000, 0.000, 21:23:16.038, 1541902996038
179, 40696.11, 16018.58, -187500.02, -187500.02, -187500.02, -187500.02, -187500.02, -187500.02, 0.000, 0.000, 0.000, 21:23:16.038, 1541902996038
180, 40401.34, 15648.88, -187500.02, -187500.02, -187500.02, -187500.02, -187500.02, -187500.02, 0.000, 0.000, 0.000, 21:23:16.038, 1541902996038
181, 40079.94, 15252.81, -187500.02, -187500.02, -187500.02, -187500.02, -187500.02, -187500.02, 0.000, 0.000, 0.000, 21:23:16.039, 1541902996039
182, 40248.18, 15444.38, -187500.02, -187500.02, -187500.02, -187500.02, -187500.02, -187500.02, 0.000, 0.000, 0.000, 21:23:16.039, 1541902996039
183, 40698.39, 15982.37, -187500.02, -187500.02, -187500.02, -187500.02, -187500.02, -187500.02, 0.000, 0.000, 0.000, 21:23:16.039, 1541902996039
184, 40523.44, 15779.93, -187500.02, -187500.02, -187500.02, -187500.02, -187500.02, -187500.02, 0.000, 0.000, 0.000, 21:23:16.039, 1541902996039
185, 40149.63, 15333.79, -187500.02, -187500.02, -187500.02, -187500.02, -187500.02, -187500.02, 0.000, 0.000, 0.000, 21:23:16.039, 1541902996039
186, 40204.11, 15413.23, -187500.02, -187500.02, -187500.02, -187500.02, -187500.02, -187500.02, 0.000, 0.000, 0.000, 21:23:16.039, 1541902996039
187, 40654.87, 15953.36, -187500.02, -187500.02, -187500.02, -187500.02, -187500.02, -187500.02, 0.284, 0.712, 0.582, 21:23:16.039, 1541902996039
188, 40616.02, 15911.60, -187500.02, -187500.02, -187500.02, -187500.02, -187500.02, -187500.02, 0.000, 0.000, 0.000, 21:23:16.039, 1541902996039
189, 40192.39, 15412.49, -187500.02, -187500.02, -187500.02, -187500.02, -187500.02, -187500.02, 0.000, 0.000, 0.000, 21:23:16.039, 1541902996039
190, 40164.95, 15394.56, -187500.02, -187500.02, -187500.02, -187500.02, -187500.02, -187500.02, 0.000, 0.000, 0.000, 21:23:16.039, 1541902996039
191, 40587.37, 15883.60, -187500.02, -187500.02, -187500.02, -187500.02, -187500.02, -187500.02, 0.000, 0.000, 0.000, 21:23:16.050, 1541902996050
192, 40679.77, 15971.62, -187500.02, -187500.02, -187500.02, -187500.02, -187500.02, -187500.02, 0.000, 0.000, 0.000, 21:23:16.051, 1541902996051
193, 40248.45, 15437.83, -187500.02, -187500.02, -187500.02, -187500.02, -187500.02, -187500.02, 0.000, 0.000, 0.000, 21:23:16.053, 1541902996053
194, 40132.98, 15323.28, -187500.02, -187500.02, -187500.02, -187500.02, -187500.02, -187500.02, 0.000, 0.000, 0.000, 21:23:16.053, 1541902996053
195, 40506.07, 15771.79, -187500.02, -187500.02, -187500.02, -187500.02, -187500.02, -187500.02, 0.000, 0.000, 0.000, 21:23:16.053, 1541902996053
196, 40729.82, 16025.80, -187500.02, -187500.02, -187500.02, -187500.02, -187500.02, -187500.02, 0.000, 0.000, 0.000, 21:23:16.053, 1541902996053
197, 40317.70, 15544.32, -187500.02, -187500.02, -187500.02, -187500.02, -187500.02, -187500.02, 0.284, 0.706, 0.578, 21:23:16.053, 1541902996053
198, 40110.45, 15302.58, -187500.02, -187500.02, -187500.02, -187500.02, -187500.02, -187500.02, 0.000, 0.000, 0.000, 21:23:16.054, 1541902996054
199, 40420.47, 15669.76, -187500.02, -187500.02, -187500.02, -187500.02, -187500.02, -187500.02, 0.000, 0.000, 0.000, 21:23:16.054, 1541902996054
200, 40747.47, 16069.23, -187500.02, -187500.02, -187500.02, -187500.02, -187500.02, -187500.02, 0.000, 0.000, 0.000, 21:23:16.054, 1541902996054
201, 40386.79, 15635.80, -187500.02, -187500.02, -187500.02, -187500.02, -187500.02, -187500.02, 0.000, 0.000, 0.000, 21:23:16.054, 1541902996054
202, 40117.69, 15323.37, -187500.02, -187500.02, -187500.02, -187500.02, -187500.02, -187500.02, 0.000, 0.000, 0.000, 21:23:16.055, 1541902996055
203, 40342.55, 15591.10, -187500.02, -187500.02, -187500.02, -187500.02, -187500.02, -187500.02, 0.000, 0.000, 0.000, 21:23:16.055, 1541902996055
204, 40743.47, 16060.62, -187500.02, -187500.02, -187500.02, -187500.02, -187500.02, -187500.02, 0.000, 0.000, 0.000, 21:23:16.055, 1541902996055
205, 40457.59, 15722.93, -187500.02, -187500.02, -187500.02, -187500.02, -187500.02, -187500.02, 0.000, 0.000, 0.000, 21:23:16.055, 1541902996055
206, 40110.94, 15308.62, -187500.02, -187500.02, -187500.02, -187500.02, -187500.02, -187500.02, 0.000, 0.000, 0.000, 21:23:16.055, 1541902996055
207, 40246.75, 15465.62, -187500.02, -187500.02, -187500.02, -187500.02, -187500.02, -187500.02, 0.286, 0.700, 0.580, 21:23:16.055, 1541902996055
208, 40717.23, 16015.61, -187500.02, -187500.02, -187500.02, -187500.02, -187500.02, -187500.02, 0.000, 0.000, 0.000, 21:23:16.055, 1541902996055
209, 40546.87, 15833.93, -187500.02, -187500.02, -187500.02, -187500.02, -187500.02, -187500.02, 0.000, 0.000, 0.000, 21:23:16.056, 1541902996056
210, 40154.57, 15368.70, -187500.02, -187500.02, -187500.02, -187500.02, -187500.02, -187500.02, 0.000, 0.000, 0.000, 21:23:16.056, 1541902996056
211, 40217.07, 15436.65, -187500.02, -187500.02, -187500.02, -187500.02, -187500.02, -187500.02, 0.000, 0.000, 0.000, 21:23:16.056, 1541902996056
212, 40663.50, 15959.70, -187500.02, -187500.02, -187500.02, -187500.02, -187500.02, -187500.02, 0.000, 0.000, 0.000, 21:23:16.056, 1541902996056
213, 40638.91, 15922.38, -187500.02, -187500.02, -187500.02, -187500.02, -187500.02, -187500.02, 0.000, 0.000, 0.000, 21:23:16.056, 1541902996056
214, 40192.37, 15401.78, -187500.02, -187500.02, -187500.02, -187500.02, -187500.02, -187500.02, 0.000, 0.000, 0.000, 21:23:16.483, 1541902996483
215, 40156.90, 15360.54, -187500.02, -187500.02, -187500.02, -187500.02, -187500.02, -187500.02, 0.000, 0.000, 0.000, 21:23:16.483, 1541902996483
216, 40587.57, 15855.81, -187500.02, -187500.02, -187500.02, -187500.02, -187500.02, -187500.02, 0.000, 0.000, 0.000, 21:23:16.483, 1541902996483
217, 40684.89, 15983.89, -187500.02, -187500.02, -187500.02, -187500.02, -187500.02, -187500.02, 0.292, 0.690, 0.584, 21:23:16.483, 1541902996483
218, 40241.77, 15457.59, -187500.02, -187500.02, -187500.02, -187500.02, -187500.02, -187500.02, 0.000, 0.000, 0.000, 21:23:16.484, 1541902996484
219, 40123.77, 15335.93, -187500.02, -187500.02, -187500.02, -187500.02, -187500.02, -187500.02, 0.000, 0.000, 0.000, 21:23:16.485, 1541902996485
220, 40507.08, 15789.56, -187500.02, -187500.02, -187500.02, -187500.02, -187500.02, -187500.02, 0.000, 0.000, 0.000, 21:23:16.486, 1541902996486
221, 40747.92, 16066.23, -187500.02, -187500.02, -187500.02, -187500.02, -187500.02, -187500.02, 0.000, 0.000, 0.000, 21:23:16.486, 1541902996486
222, 40310.57, 15538.40, -187500.02, -187500.02, -187500.02, -187500.02, -187500.02, -187500.02, 0.000, 0.000, 0.000, 21:23:16.487, 1541902996487
223, 40109.33, 15293.73, -187500.02, -187500.02, -187500.02, -187500.02, -187500.02, -187500.02, 0.000, 0.000, 0.000, 21:23:16.487, 1541902996487
224, 40400.46, 15647.99, -187500.02, -187500.02, -187500.02, -187500.02, -187500.02, -187500.02, 0.000, 0.000, 0.000, 21:23:16.488, 1541902996488
225, 40737.53, 16062.95, -187500.02, -187500.02, -187500.02, -187500.02, -187500.02, -187500.02, 0.000, 0.000, 0.000, 21:23:16.488, 1541902996488
226, 40390.59, 15632.56, -187500.02, -187500.02, -187500.02, -187500.02, -187500.02, -187500.02, 0.000, 0.000, 0.000, 21:23:16.490, 1541902996490
227, 40102.02, 15300.39, -187500.02, -187500.02, -187500.02, -187500.02, -187500.02, -187500.02, 0.288, 0.696, 0.588, 21:23:16.490, 1541902996490
228, 40318.70, 15562.83, -187500.02, -187500.02, -187500.02, -187500.02, -187500.02, -187500.02, 0.000, 0.000, 0.000, 21:23:16.490, 1541902996490
229, 40734.98, 16052.69, -187500.02, -187500.02, -187500.02, -187500.02, -187500.02, -187500.02, 0.000, 0.000, 0.000, 21:23:16.490, 1541902996490
230, 40482.85, 15743.36, -187500.02, -187500.02, -187500.02, -187500.02, -187500.02, -187500.02, 0.000, 0.000, 0.000, 21:23:16.490, 1541902996490
231, 40136.16, 15336.36, -187500.02, -187500.02, -187500.02, -187500.02, -187500.02, -187500.02, 0.000, 0.000, 0.000, 21:23:16.490, 1541902996490
232, 40246.46, 15470.18, -187500.02, -187500.02, -187500.02, -187500.02, -187500.02, -187500.02, 0.000, 0.000, 0.000, 21:23:16.490, 1541902996490
233, 40693.54, 16000.74, -187500.02, -187500.02, -187500.02, -187500.02, -187500.02, -187500.02, 0.000, 0.000, 0.000, 21:23:16.491, 1541902996491
234, 40553.98, 15838.69, -187500.02, -187500.02, -187500.02, -187500.02, -187500.02, -187500.02, 0.000, 0.000, 0.000, 21:23:16.491, 1541902996491
235, 40158.24, 15362.76, -187500.02, -187500.02, -187500.02, -187500.02, -187500.02, -187500.02, 0.000, 0.000, 0.000, 21:23:16.491, 1541902996491
236, 40190.63, 15394.25, -187500.02, -187500.02, -187500.02, -187500.02, -187500.02, -187500.02, 0.000, 0.000, 0.000, 21:23:16.491, 1541902996491
237, 40634.38, 15935.68, -187500.02, -187500.02, -187500.02, -187500.02, -187500.02, -187500.02, 0.000, 0.000, 0.000, 21:23:16.491, 1541902996491
238, 40633.93, 15949.27, -187500.02, -187500.02, -187500.02, -187500.02, -187500.02, -187500.02, 0.292, 0.692, 0.586, 21:23:16.491, 1541902996491
239, 40213.22, 15433.21, -187500.02, -187500.02, -187500.02, -187500.02, -187500.02, -187500.02, 0.000, 0.000, 0.000, 21:23:16.491, 1541902996491
240, 40157.59, 15362.11, -187500.02, -187500.02, -187500.02, -187500.02, -187500.02, -187500.02, 0.000, 0.000, 0.000, 21:23:16.491, 1541902996491
241, 40574.90, 15845.06, -187500.02, -187500.02, -187500.02, -187500.02, -187500.02, -187500.02, 0.000, 0.000, 0.000, 21:23:16.491, 1541902996491
242, 40700.76, 16009.46, -187500.02, -187500.02, -187500.02, -187500.02, -187500.02, -187500.02, 0.000, 0.000, 0.000, 21:23:16.491, 1541902996491
243, 40271.20, 15488.95, -187500.02, -187500.02, -187500.02, -187500.02, -187500.02, -187500.02, 0.000, 0.000, 0.000, 21:23:16.491, 1541902996491
244, 40140.89, 15331.55, -187500.02, -187500.02, -187500.02, -187500.02, -187500.02, -187500.02, 0.000, 0.000, 0.000, 21:23:16.492, 1541902996492
245, 40477.22, 15736.37, -187500.02, -187500.02, -187500.02, -187500.02, -187500.02, -187500.02, 0.000, 0.000, 0.000, 21:23:16.492, 1541902996492
246, 40726.24, 16046.76, -187500.02, -187500.02, -187500.02, -187500.02, -187500.02, -187500.02, 0.000, 0.000, 0.000, 21:23:16.492, 1541902996492
247, 40314.30, 15558.53, -187500.02, -187500.02, -187500.02, -187500.02, -187500.02, -187500.02, 0.000, 0.000, 0.000, 21:23:16.492, 1541902996492
248, 40101.04, 15299.99, -187500.02, -187500.02, -187500.02, -187500.02, -187500.02, -187500.02, 0.292, 0.686, 0.582, 21:23:16.492, 1541902996492
249, 40385.27, 15659.54, -187500.02, -187500.02, -187500.02, -187500.02, -187500.02, -187500.02, 0.000, 0.000, 0.000, 21:23:16.492, 1541902996492
250, 40752.35, 16096.41, -187500.02, -187500.02, -187500.02, -187500.02, -187500.02, -187500.02, 0.000, 0.000, 0.000, 21:23:16.492, 1541902996492
251, 40417.16, 15660.17, -187500.02, -187500.02, -187500.02, -187500.02, -187500.02, -187500.02, 0.000, 0.000, 0.000, 21:23:16.492, 1541902996492
252, 40112.66, 15304.91, -187500.02, -187500.02, -187500.02, -187500.02, -187500.02, -187500.02, 0.000, 0.000, 0.000, 21:23:16.492, 1541902996492
253, 40316.69, 15540.34, -187500.02, -187500.02, -187500.02, -187500.02, -187500.02, -187500.02, 0.000, 0.000, 0.000, 21:23:16.492, 1541902996492
254, 40737.04, 16042.76, -187500.02, -187500.02, -187500.02, -187500.02, -187500.02, -187500.02, 0.000, 0.000, 0.000, 21:23:16.492, 1541902996492
255, 40487.88, 15754.49, -187500.02, -187500.02, -187500.02, -187500.02, -187500.02, -187500.02, 0.000, 0.000, 0.000, 21:23:16.493, 1541902996493
0, 40138.46, 15331.13, -187500.02, -187500.02, -187500.02, -187500.02, -187500.02, -187500.02, 0.000, 0.000, 0.000, 21:23:16.493, 1541902996493
1, 40252.83, 15459.90, -187500.02, -187500.02, -187500.02, -187500.02, -187500.02, -187500.02, 0.000, 0.000, 0.000, 21:23:16.493, 1541902996493
2, 40699.02, 16001.30, -187500.02, -187500.02, -187500.02, -187500.02, -187500.02, -187500.02, 0.284, 0.684, 0.588, 21:23:16.493, 1541902996493
3, 40558.22, 15862.83, -187500.02, -187500.02, -187500.02, -187500.02, -187500.02, -187500.02, 0.000, 0.000, 0.000, 21:23:16.493, 1541902996493
4, 40141.81, 15367.87, -187500.02, -187500.02, -187500.02, -187500.02, -187500.02, -187500.02, 0.000, 0.000, 0.000, 21:23:16.493, 1541902996493
5, 40165.12, 15389.64, -187500.02, -187500.02, -187500.02, -187500.02, -187500.02, -187500.02, 0.000, 0.000, 0.000, 21:23:16.493, 1541902996493
6, 40615.09, 15927.61, -187500.02, -187500.02, -187500.02, -187500.02, -187500.02, -187500.02, 0.000, 0.000, 0.000, 21:23:16.493, 1541902996493
7, 40637.28, 15946.94, -187500.02, -187500.02, -187500.02, -187500.02, -187500.02, -187500.02, 0.000, 0.000, 0.000, 21:23:16.493, 1541902996493
8, 40203.50, 15417.58, -187500.02, -187500.02, -187500.02, -187500.02, -187500.02, -187500.02, 0.000, 0.000, 0.000, 21:23:16.493, 1541902996493
9, 40122.18, 15320.31, -187500.02, -187500.02, -187500.02, -187500.02, -187500.02, -187500.02, 0.000, 0.000, 0.000, 21:23:16.493, 1541902996493
10, 40530.55, 15803.11, -187500.02, -187500.02, -187500.02, -187500.02, -187500.02, -187500.02, 0.000, 0.000, 0.000, 21:23:16.494, 1541902996494
11, 40692.87, 16013.26, -187500.02, -187500.02, -187500.02, -187500.02, -187500.02, -187500.02, 0.000, 0.000, 0.000, 21:23:16.494, 1541902996494
12, 40241.05, 15488.66, -187500.02, -187500.02, -187500.02, -187500.02, -187500.02, -187500.02, 0.284, 0.692, 0.592, 21:23:16.494, 1541902996494
13, 40081.73, 15299.95, -187500.02, -187500.02, -187500.02, -187500.02, -187500.02, -187500.02, 0.000, 0.000, 0.000, 21:23:16.494, 1541902996494
14, 40436.70, 15708.78, -187500.02, -187500.02, -187500.02, -187500.02, -187500.02, -187500.02, 0.000, 0.000, 0.000, 21:23:16.494, 1541902996494
15, 40731.43, 16057.54, -187500.02, -187500.02, -187500.02, -187500.02, -187500.02, -187500.02, 0.000, 0.000, 0.000, 21:23:16.494, 1541902996494
16, 40331.73, 15585.11, -187500.02, -187500.02, -187500.02, -187500.02, -187500.02, -187500.02, 0.000, 0.000, 0.000, 21:23:16.494, 1541902996494
17, 40096.99, 15312.02, -187500.02, -187500.02, -187500.02, -187500.02, -187500.02, -187500.02, 0.000, 0.000, 0.000, 21:23:16.494, 1541902996494
18, 40359.18, 15632.65, -187500.02, -187500.02, -187500.02, -187500.02, -187500.02, -187500.02, 0.000, 0.000, 0.000, 21:23:16.494, 1541902996494
19, 40733.80, 16070.28, -187500.02, -187500.02, -187500.02, -187500.02, -187500.02, -187500.02, 0.000, 0.000, 0.000, 21:23:16.494, 1541902996494
20, 40403.14, 15681.18, -187500.02, -187500.02, -187500.02, -187500.02, -187500.02, -187500.02, 0.000, 0.000, 0.000, 21:23:16.495, 1541902996495
21, 40078.40, 15288.24, -187500.02, -187500.02, -187500.02, -187500.02, -187500.02, -187500.02, 0.000, 0.000, 0.000, 21:23:16.495, 1541902996495
22, 40255.85, 15489.67, -187500.02, -187500.02, -187500.02, -187500.02, -187500.02, -187500.02, 0.286, 0.688, 0.594, 21:23:16.495, 1541902996495
23, 40695.69, 16014.87, -187500.02, -187500.02, -187500.02, -187500.02, -187500.02, -187500.02, 0.000, 0.000, 0.000, 21:23:16.495, 1541902996495
24, 40492.55, 15778.52, -187500.02, -187500.02, -187500.02, -187500.02, -187500.02, -187500.02, 0.000, 0.000, 0.000, 21:23:16.495, 1541902996495
25, 40110.63, 15322.92, -187500.02, -187500.02, -187500.02, -187500.02, -187500.02, -187500.02, 0.000, 0.000, 0.000, 21:23:16.495, 1541902996495
26, 40204.39, 15444.16, -187500.02, -187500.02, -187500.02, -187500.02, -187500.02, -187500.02, 0.000, 0.000, 0.000, 21:23:16.495, 1541902996495
27, 40664.10, 16011.76, -187500.02, -187500.02, -187500.02, -187500.02, -187500.02, -187500.02, 0.000, 0.000, 0.000, 21:23:16.495, 1541902996495
28, 40570.92, 15893.70, -187500.02, -187500.02, -187500.02, -187500.02, -187500.02, -187500.02, 0.000, 0.000, 0.000, 21:23:16.495, 1541902996495
29, 40158.80, 15375.12, -187500.02, -187500.02, -187500.02, -187500.02, -187500.02, -187500.02, 0.000, 0.000, 0.000, 21:23:16.495, 1541902996495
30, 40164.54, 15384.12, -187500.02, -187500.02, -187500.02, -187500.02, -187500.02, -187500.02, 0.000, 0.000, 0.000, 21:23:16.496, 1541902996496
31, 40601.90, 15899.09, -187500.02, -187500.02, -187500.02, -187500.02, -187500.02, -187500.02, 0.000, 0.000, 0.000, 21:23:16.496, 1541902996496
32, 40649.84, 15962.07, -187500.02, -187500.02, -187500.02, -187500.02, -187500.02, -187500.02, 0.292, 0.694, 0.592, 21:23:16.496, 1541902996496
33, 40193.55, 15434.48, -187500.02, -187500.02, -187500.02, -187500.02, -187500.02, -187500.02, 0.000, 0.000, 0.000, 21:23:16.496, 1541902996496
34, 40113.00, 15345.10, -187500.02, -187500.02, -187500.02, -187500.02, -187500.02, -187500.02, 0.000, 0.000, 0.000, 21:23:16.496, 1541902996496
35, 40511.33, 15806.50, -187500.02, -187500.02, -187500.02, -187500.02, -187500.02, -187500.02, 0.000, 0.000, 0.000, 21:23:16.496, 1541902996496
36, 40696.78, 16024.32, -187500.02, -187500.02, -187500.02, -187500.02, -187500.02, -187500.02, 0.000, 0.000, 0.000, 21:23:16.496, 1541902996496
37, 40265.95, 15513.63, -187500.02, -187500.02, -187500.02, -187500.02, -187500.02, -187500.02, 0.000, 0.000, 0.000, 21:23:16.496, 1541902996496
38, 40086.13, 15296.48, -187500.02, -187500.02, -187500.02, -187500.02, -187500.02, -187500.02, 0.000, 0.000, 0.000, 21:23:16.496, 1541902996496
39, 40411.10, 15680.64, -187500.02, -187500.02, -187500.02, -187500.02, -187500.02, -187500.02, 0.000, 0.000, 0.000, 21:23:16.496, 1541902996496
40, 40726.73, 16072.29, -187500.02, -187500.02, -187500.02, -187500.02, -187500.02, -187500.02, 0.000, 0.000, 0.000, 21:23:16.496, 1541902996496
41, 40352.52, 15609.25, -187500.02, -187500.02, -187500.02, -187500.02, -187500.02, -187500.02, 0.000, 0.000, 0.000, 21:23:16.497, 1541902996497
42, 40081.13, 15303.03, -187500.02, -187500.02, -187500.02, -187500.02, -187500.02, -187500.02, 0.288, 0.686, 0.596, 21:23:16.497, 1541902996497
43, 40319.57, 15587.30, -187500.02, -187500.02, -187500.02, -187500.02, -187500.02, -187500.02, 0.000, 0.000, 0.000, 21:23:16.497, 1541902996497
44, 40716.38, 16054.56, -187500.02, -187500.02, -187500.02, -187500.02, -187500.02, -187500.02, 0.000, 0.000, 0.000, 21:23:16.497, 1541902996497
45, 40399.12, 15679.23, -187500.02, -187500.02, -187500.02, -187500.02, -187500.02, -187500.02, 0.000, 0.000, 0.000, 21:23:16.497, 1541902996497
46, 40071.87, 15300.17, -187500.02, -187500.02, -187500.02, -187500.02, -187500.02, -187500.02, 0.000, 0.000, 0.000, 21:23:16.497, 1541902996497
47, 40236.45, 15505.61, -187500.02, -187500.02, -187500.02, -187500.02, -187500.02, -187500.02, 0.000, 0.000, 0.000, 21:23:16.498, 1541902996498
48, 40674.96, 16025.55, -187500.02, -187500.02, -187500.02, -187500.02, -187500.02, -187500.02, 0.000, 0.000, 0.000, 21:23:16.499, 1541902996499
49, 40488.30, 15800.40, -187500.02, -187500.02, -187500.02, -187500.02, -187500.02, -187500.02, 0.000, 0.000, 0.000, 21:23:16.499, 1541902996499
50, 40116.71, 15365.10, -187500.02, -187500.02, -187500.02, -187500.02, -187500.02, -187500.02, 0.000, 0.000, 0.000, 21:23:16.499, 1541902996499
51, 40183.81, 15467.43, -187500.02, -187500.02, -187500.02, -187500.02, -187500.02, -187500.02, 0.000, 0.000, 0.000, 21:23:16.499, 1541902996499
52, 40644.84, 16022.96, -187500.02, -187500.02, -187500.02, -187500.02, -187500.02, -187500.02, 0.000, 0.000, 0.000, 21:23:16.499, 1541902996499
53, 40588.49, 15961.22, -187500.02, -187500.02, -187500.02, -187500.02, -187500.02, -187500.02, 0.292, 0.686, 0.600, 21:23:16.499, 1541902996499
54, 40154.89, 15418.97, -187500.02, -187500.02, -187500.02, -187500.02, -187500.02, -187500.02, 0.000, 0.000, 0.000, 21:23:16.499, 1541902996499
55, 40145.50, 15406.14, -187500.02, -187500.02, -187500.02, -187500.02, -187500.02, -187500.02, 0.000, 0.000, 0.000, 21:23:16.499, 1541902996499
56, 40581.51, 15935.59, -187500.02, -187500.02, -187500.02, -187500.02, -187500.02, -187500.02, 0.000, 0.000, 0.000, 21:23:16.500, 1541902996500
57, 40659.68, 16027.76, -187500.02, -187500.02, -187500.02, -187500.02, -187500.02, -187500.02, 0.000, 0.000, 0.000, 21:23:16.500, 1541902996500
58, 40219.50, 15482.52, -187500.02, -187500.02, -187500.02, -187500.02, -187500.02, -187500.02, 0.000, 0.000, 0.000, 21:23:16.500, 1541902996500
59, 40107.93, 15364.34, -187500.02, -187500.02, -187500.02, -187500.02, -187500.02, -187500.02, 0.000, 0.000, 0.000, 21:23:16.500, 1541902996500
60, 40495.91, 15834.53, -187500.02, -187500.02, -187500.02, -187500.02, -187500.02, -187500.02, 0.000, 0.000, 0.000, 21:23:16.500, 1541902996500
61, 40712.85, 16112.57, -187500.02, -187500.02, -187500.02, -187500.02, -187500.02, -187500.02, 0.000, 0.000, 0.000, 21:23:16.500, 1541902996500
62, 40286.85, 15607.13, -187500.02, -187500.02, -187500.02, -187500.02, -187500.02, -187500.02, 0.000, 0.000, 0.000, 21:23:16.500, 1541902996500
63, 40104.37, 15361.44, -187500.02, -187500.02, -187500.02, -187500.02, -187500.02, -187500.02, 0.290, 0.686, 0.596, 21:23:16.500, 1541902996500
64, 40412.20, 15716.07, -187500.02, -187500.02, -187500.02, -187500.02, -187500.02, -187500.02, 0.000, 0.000, 0.000, 21:23:16.501, 1541902996501
65, 40727.63, 16118.94, -187500.02, -187500.02, -187500.02, -187500.02, -187500.02, -187500.02, 0.000, 0.000, 0.000, 21:23:16.501, 1541902996501
66, 40366.82, 15696.62, -187500.02, -187500.02, -187500.02, -187500.02, -187500.02, -187500.02, 0.000, 0.000, 0.000, 21:23:16.501, 1541902996501
67, 40110.76, 15379.47, -187500.02, -187500.02, -187500.02, -187500.02, -187500.02, -187500.02, 0.000, 0.000, 0.000, 21:23:16.501, 1541902996501
68, 40325.96, 15637.15, -187500.02, -187500.02, -187500.02, -187500.02, -187500.02, -187500.02, 0.000, 0.000, 0.000, 21:23:16.501, 1541902996501
69, 40724.54, 16117.80, -187500.02, -187500.02, -187500.02, -187500.02, -187500.02, -187500.02, 0.000, 0.000, 0.000, 21:23:16.502, 1541902996502
0, 0.00, 0.00, 0.00, 0.00, 0.00, 0.00, 0.00, 0.00, 0.288, 0.682, 0.596, 21:23:16.502, 1541902996502
1, 40688.51, 16086.17, 0.00, -187500.02, -187500.02, -187500.02, -187500.02, -187500.02, 0.000, 0.000, 0.000, 21:23:16.530, 1541902996530
2, 40490.03, 15837.91, 0.00, -187500.02, -187500.02, -187500.02, -187500.02, -187500.02, 0.000, 0.000, 0.000, 21:23:16.531, 1541902996531
3, 40143.22, 15417.47, 0.00, -187500.02, -187500.02, -187500.02, -187500.02, -187500.02, 0.000, 0.000, 0.000, 21:23:16.532, 1541902996532
4, 40246.46, 15527.04, 0.00, -187500.02, -187500.02, -187500.02, -187500.02, -187500.02, 0.000, 0.000, 0.000, 21:23:16.532, 1541902996532
41, 40094.96, 15377.20, 0.00, -187500.02, -187500.02, -187500.02, -187500.02, -187500.02, 0.000, 0.000, 0.000, 21:23:16.684, 1541902996684
42, 40395.66, 15752.15, 0.00, -187500.02, -187500.02, -187500.02, -187500.02, -187500.02, 0.000, 0.000, 0.000, 21:23:16.685, 1541902996685
0, 0.00, 0.00, 0.00, 0.00, 0.00, 0.00, 0.00, 0.00, 0.000, 0.000, 0.000, 21:23:16.702, 1541902996702
1, 40341.66, 15701.18, 0.00, 0.00, -187500.02, -187500.02, -187500.02, -187500.02, 0.284, 0.670, 0.600, 21:23:16.774, 1541902996774
2, 40678.86, 16118.42, 0.00, 0.00, -187500.02, -187500.02, -187500.02, -187500.02, 0.000, 0.000, 0.000, 21:23:16.774, 1541902996774
3, 40335.93, 15688.87, 0.00, 0.00, -187500.02, -187500.02, -187500.02, -187500.02, 0.000, 0.000, 0.000, 21:23:16.775, 1541902996775
4, 40082.71, 15364.28, 0.00, 0.00, -187500.02, -187500.02, -187500.02, -187500.02, 0.000, 0.000, 0.000, 21:23:16.775, 1541902996775
5, 40302.83, 15627.69, 0.00, 0.00, -187500.02, -187500.02, -187500.02, -187500.02, 0.000, 0.000, 0.000, 21:23:16.775, 1541902996775
6, 40708.49, 16114.78, 0.00, 0.00, -187500.02, -187500.02, -187500.02, -187500.02, 0.000, 0.000, 0.000, 21:23:16.776, 1541902996776
7, 40455.94, 15812.65, 0.00, 0.00, -187500.02, -187500.02, -187500.02, -187500.02, 0.000, 0.000, 0.000, 21:23:16.776, 1541902996776
8, 40122.23, 15410.45, 0.00, 0.00, -187500.02, -187500.02, -187500.02, -187500.02, 0.286, 0.678, 0.602, 21:23:16.776, 1541902996776
9, 40252.68, 15564.08, 0.00, 0.00, -187500.02, -187500.02, -187500.02, -187500.02, 0.000, 0.000, 0.000, 21:23:16.777, 1541902996777
10, 40686.75, 16081.05, 0.00, 0.00, -187500.02, -187500.02, -187500.02, -187500.02, 0.000, 0.000, 0.000, 21:23:16.777, 1541902996777
11, 40537.57, 15907.00, 0.00, 0.00, -187500.02, -187500.02, -187500.02, -187500.02, 0.000, 0.000, 0.000, 21:23:16.777, 1541902996777
12, 40153.57, 15445.23, 0.00, 0.00, -187500.02, -187500.02, -187500.02, -187500.02, 0.000, 0.000, 0.000, 21:23:16.777, 1541902996777
13, 40191.43, 15482.29, 0.00, 0.00, -187500.02, -187500.02, -187500.02, -187500.02, 0.000, 0.000, 0.000, 21:23:16.778, 1541902996778
14, 40619.89, 16000.56, 0.00, 0.00, -187500.02, -187500.02, -187500.02, -187500.02, 0.000, 0.000, 0.000, 21:23:16.778, 1541902996778
15, 40613.23, 16010.51, 0.00, 0.00, -187500.02, -187500.02, -187500.02, -187500.02, 0.000, 0.000, 0.000, 21:23:16.778, 1541902996778
0, 0.00, 0.00, 0.00, 0.00, 0.00, 0.00, 0.00, 0.00, 0.290, 0.686, 0.606, 21:23:16.790, 1541902996790
1, 40556.75, 15945.35, 0.00, 0.00, 0.00, -187500.02, -187500.02, -187500.02, 0.000, 0.000, 0.000, 21:23:16.985, 1541902996985
2, 40159.96, 15468.39, 0.00, 0.00, 0.00, -187500.02, -187500.02, -187500.02, 0.000, 0.000, 0.000, 21:23:16.985, 1541902996985
3, 40098.22, 15392.42, 0.00, 0.00, 0.00, -187500.02, -187500.02, -187500.02, 0.000, 0.000, 0.000, 21:23:16.986, 1541902996986
4, 40487.77, 15855.97, 0.00, 0.00, 0.00, -187500.02, -187500.02, -187500.02, 0.000, 0.000, 0.000, 21:23:16.986, 1541902996986
5, 40684.62, 16087.53, 0.00, 0.00, 0.00, -187500.02, -187500.02, -187500.02, 0.000, 0.000, 0.000, 21:23:16.986, 1541902996986
6, 40264.16, 15586.68, 0.00, 0.00, 0.00, -187500.02, -187500.02, -187500.02, 0.294, 0.676, 0.600, 21:23:16.986, 1541902996986
7, 40092.46, 15391.43, 0.00, 0.00, 0.00, -187500.02, -187500.02, -187500.02, 0.000, 0.000, 0.000, 21:23:16.986, 1541902996986
8, 40426.55, 15789.76, 0.00, 0.00, 0.00, -187500.02, -187500.02, -187500.02, 0.000, 0.000, 0.000, 21:23:16.987, 1541902996987
9, 40738.69, 16157.67, 0.00, 0.00, 0.00, -187500.02, -187500.02, -187500.02, 0.000, 0.000, 0.000, 21:23:16.988, 1541902996988
10, 40359.96, 15684.98, 0.00, 0.00, 0.00, -187500.02, -187500.02, -187500.02, 0.000, 0.000, 0.000, 21:23:16.989, 1541902996989
11, 40088.32, 15377.89, 0.00, 0.00, 0.00, -187500.02, -187500.02, -187500.02, 0.000, 0.000, 0.000, 21:23:16.989, 1541902996989
12, 40317.36, 15667.63, 0.00, 0.00, 0.00, -187500.02, -187500.02, -187500.02, 0.000, 0.000, 0.000, 21:23:16.989, 1541902996989
13, 40697.18, 16116.97, 0.00, 0.00, 0.00, -187500.02, -187500.02, -187500.02, 0.000, 0.000, 0.000, 21:23:16.989, 1541902996989
14, 40414.19, 15776.33, 0.00, 0.00, 0.00, -187500.02, -187500.02, -187500.02, 0.000, 0.000, 0.000, 21:23:16.989, 1541902996989
15, 40111.41, 15406.10, 0.00, 0.00, 0.00, -187500.02, -187500.02, -187500.02, 0.000, 0.000, 0.000, 21:23:16.989, 1541902996989
16, 40272.21, 15597.92, 0.00, 0.00, 0.00, -187500.02, -187500.02, -187500.02, 0.286, 0.682, 0.592, 21:23:16.990, 1541902996990
17, 40692.64, 16119.03, 0.00, 0.00, 0.00, -187500.02, -187500.02, -187500.02, 0.000, 0.000, 0.000, 21:23:16.990, 1541902996990
18, 40500.80, 15877.07, 0.00, 0.00, 0.00, -187500.02, -187500.02, -187500.02, 0.000, 0.000, 0.000, 21:23:16.990, 1541902996990
19, 40129.79, 15427.93, 0.00, 0.00, 0.00, -187500.02, -187500.02, -187500.02, 0.000, 0.000, 0.000, 21:23:16.990, 1541902996990
20, 40186.11, 15509.72, 0.00, 0.00, 0.00, -187500.02, -187500.02, -187500.02, 0.000, 0.000, 0.000, 21:23:16.990, 1541902996990
21, 40611.64, 16020.79, 0.00, 0.00, 0.00, -187500.02, -187500.02, -187500.02, 0.000, 0.000, 0.000, 21:23:16.990, 1541902996990
22, 40559.99, 15961.47, 0.00, 0.00, 0.00, -187500.02, -187500.02, -187500.02, 0.000, 0.000, 0.000, 21:23:16.990, 1541902996990
23, 40149.75, 15473.29, 0.00, 0.00, 0.00, -187500.02, -187500.02, -187500.02, 0.000, 0.000, 0.000, 21:23:16.990, 1541902996990
24, 40120.17, 15426.73, 0.00, 0.00, 0.00, -187500.02, -187500.02, -187500.02, 0.000, 0.000, 0.000, 21:23:16.990, 1541902996990
25, 40538.15, 15931.74, 0.00, 0.00, 0.00, -187500.02, -187500.02, -187500.02, 0.000, 0.000, 0.000, 21:23:16.991, 1541902996991
26, 40634.24, 16053.18, 0.00, 0.00, 0.00, -187500.02, -187500.02, -187500.02, 0.282, 0.690, 0.590, 21:23:16.991, 1541902996991
27, 40201.11, 15528.32, 0.00, 0.00, 0.00, -187500.02, -187500.02, -187500.02, 0.000, 0.000, 0.000, 21:23:16.991, 1541902996991
28, 40088.21, 15382.72, 0.00, 0.00, 0.00, -187500.02, -187500.02, -187500.02, 0.000, 0.000, 0.000, 21:23:16.991, 1541902996991
29, 40486.59, 15854.92, 0.00, 0.00, 0.00, -187500.02, -187500.02, -187500.02, 0.000, 0.000, 0.000, 21:23:16.991, 1541902996991
30, 40690.97, 16112.99, 0.00, 0.00, 0.00, -187500.02, -187500.02, -187500.02, 0.000, 0.000, 0.000, 21:23:16.991, 1541902996991
31, 40275.74, 15625.41, 0.00, 0.00, 0.00, -187500.02, -187500.02, -187500.02, 0.000, 0.000, 0.000, 21:23:16.991, 1541902996991
32, 40094.25, 15411.17, 0.00, 0.00, 0.00, -187500.02, -187500.02, -187500.02, 0.000, 0.000, 0.000, 21:23:16.991, 1541902996991
33, 40390.14, 15771.19, 0.00, 0.00, 0.00, -187500.02, -187500.02, -187500.02, 0.000, 0.000, 0.000, 21:23:16.991, 1541902996991
34, 40709.84, 16151.55, 0.00, 0.00, 0.00, -187500.02, -187500.02, -187500.02, 0.000, 0.000, 0.000, 21:23:16.991, 1541902996991
35, 40351.36, 15704.76, 0.00, 0.00, 0.00, -187500.02, -187500.02, -187500.02, 0.000, 0.000, 0.000, 21:23:16.991, 1541902996991
36, 40092.90, 15392.42, 0.00, 0.00, 0.00, -187500.02, -187500.02, -187500.02, 0.000, 0.000, 0.000, 21:23:16.991, 1541902996991
37, 40323.08, 15677.71, 0.00, 0.00, 0.00, -187500.02, -187500.02, -187500.02, 0.290, 0.680, 0.604, 21:23:16.992, 1541902996992
38, 40718.75, 16149.69, 0.00, 0.00, 0.00, -187500.02, -187500.02, -187500.02, 0.000, 0.000, 0.000, 21:23:16.992, 1541902996992
39, 40441.55, 15807.78, 0.00, 0.00, 0.00, -187500.02, -187500.02, -187500.02, 0.000, 0.000, 0.000, 21:23:16.992, 1541902996992
40, 40133.16, 15435.60, 0.00, 0.00, 0.00, -187500.02, -187500.02, -187500.02, 0.000, 0.000, 0.000, 21:23:16.992, 1541902996992
41, 40266.91, 15594.68, 0.00, 0.00, 0.00, -187500.02, -187500.02, -187500.02, 0.000, 0.000, 0.000, 21:23:16.992, 1541902996992
42, 40711.53, 16130.27, 0.00, 0.00, 0.00, -187500.02, -187500.02, -187500.02, 0.000, 0.000, 0.000, 21:23:16.992, 1541902996992
43, 40545.97, 15941.13, 0.00, 0.00, 0.00, -187500.02, -187500.02, -187500.02, 0.000, 0.000, 0.000, 21:23:16.992, 1541902996992
44, 40146.84, 15484.55, 0.00, 0.00, 0.00, -187500.02, -187500.02, -187500.02, 0.000, 0.000, 0.000, 21:23:16.992, 1541902996992
45, 40198.18, 15531.06, 0.00, 0.00, 0.00, -187500.02, -187500.02, -187500.02, 0.000, 0.000, 0.000, 21:23:16.992, 1541902996992
46, 40635.38, 16042.43, 0.00, 0.00, 0.00, -187500.02, -187500.02, -187500.02, 0.000, 0.000, 0.000, 21:23:16.992, 1541902996992
0, 0.00, 0.00, 0.00, 0.00, 0.00, 0.00, 0.00, 0.00, 0.000, 0.000, 0.000, 21:23:16.999, 1541902996999
1, 40423.11, 15819.42, 0.00, 0.00, 0.00, 0.00, -187500.02, -187500.02, 0.000, 0.000, 0.000, 21:23:17.172, 1541902997172
2, 40609.72, 16033.08, 0.00, 0.00, 0.00, 0.00, -187500.02, -187500.02, 0.000, 0.000, 0.000, 21:23:17.172, 1541902997172
3, 40233.59, 15568.57, 0.00, 0.00, 0.00, 0.00, -187500.02, -187500.02, 0.000, 0.000, 0.000, 21:23:17.173, 1541902997173
4, 40076.52, 15393.49, 0.00, 0.00, 0.00, 0.00, -187500.02, -187500.02, 0.286, 0.688, 0.602, 21:23:17.173, 1541902997173
5, 40379.14, 15768.73, 0.00, 0.00, 0.00, 0.00, -187500.02, -187500.02, 0.000, 0.000, 0.000, 21:23:17.173, 1541902997173
6, 40674.79, 16118.47, 0.00, 0.00, 0.00, 0.00, -187500.02, -187500.02, 0.000, 0.000, 0.000, 21:23:17.173, 1541902997173
7, 40309.05, 15673.56, 0.00, 0.00, 0.00, 0.00, -187500.02, -187500.02, 0.000, 0.000, 0.000, 21:23:17.183, 1541902997183
8, 40066.57, 15384.66, 0.00, 0.00, 0.00, 0.00, -187500.02, -187500.02, 0.000, 0.000, 0.000, 21:23:17.183, 1541902997183
9, 40304.75, 15674.79, 0.00, 0.00, 0.00, 0.00, -187500.02, -187500.02, 0.000, 0.000, 0.000, 21:23:17.184, 1541902997184
10, 40675.86, 16126.25, 0.00, 0.00, 0.00, 0.00, -187500.02, -187500.02, 0.000, 0.000, 0.000, 21:23:17.185, 1541902997185
11, 40388.53, 15778.03, 0.00, 0.00, 0.00, 0.00, -187500.02, -187500.02, 0.000, 0.000, 0.000, 21:23:17.185, 1541902997185
12, 40092.48, 15428.13, 0.00, 0.00, 0.00, 0.00, -187500.02, -187500.02, 0.000, 0.000, 0.000, 21:23:17.185, 1541902997185
13, 40257.68, 15629.03, 0.00, 0.00, 0.00, 0.00, -187500.02, -187500.02, 0.000, 0.000, 0.000, 21:23:17.185, 1541902997185
14, 40674.27, 16123.41, 0.00, 0.00, 0.00, 0.00, -187500.02, -187500.02, 0.266, 0.686, 0.592, 21:23:17.185, 1541902997185
15, 40469.82, 15874.28, 0.00, 0.00, 0.00, 0.00, -187500.02, -187500.02, 0.000, 0.000, 0.000, 21:23:17.185, 1541902997185
16, 40118.03, 15446.08, 0.00, 0.00, 0.00, 0.00, -187500.02, -187500.02, 0.000, 0.000, 0.000, 21:23:17.185, 1541902997185
17, 40189.66, 15540.76, 0.00, 0.00, 0.00, 0.00, -187500.02, -187500.02, 0.000, 0.000, 0.000, 21:23:17.186, 1541902997186
18, 40609.05, 16059.15, 0.00, 0.00, 0.00, 0.00, -187500.02, -187500.02, 0.000, 0.000, 0.000, 21:23:17.186, 1541902997186
19, 40538.20, 15976.11, 0.00, 0.00, 0.00, 0.00, -187500.02, -187500.02, 0.000, 0.000, 0.000, 21:23:17.186, 1541902997186
20, 40140.91, 15491.68, 0.00, 0.00, 0.00, 0.00, -187500.02, -187500.02, 0.000, 0.000, 0.000, 21:23:17.186, 1541902997186
21, 40141.81, 15490.63, 0.00, 0.00, 0.00, 0.00, -187500.02, -187500.02, 0.000, 0.000, 0.000, 21:23:17.186, 1541902997186
22, 40541.21, 15970.41, 0.00, 0.00, 0.00, 0.00, -187500.02, -187500.02, 0.000, 0.000, 0.000, 21:23:17.186, 1541902997186
23, 40602.01, 16053.71, 0.00, 0.00, 0.00, 0.00, -187500.02, -187500.02, 0.000, 0.000, 0.000, 21:23:17.186, 1541902997186
24, 40195.57, 15568.97, 0.00, 0.00, 0.00, 0.00, -187500.02, -187500.02, 0.272, 0.698, 0.596, 21:23:17.186, 1541902997186
25, 40093.24, 15452.74, 0.00, 0.00, 0.00, 0.00, -187500.02, -187500.02, 0.000, 0.000, 0.000, 21:23:17.186, 1541902997186
26, 40454.00, 15875.84, 0.00, 0.00, 0.00, 0.00, -187500.02, -187500.02, 0.000, 0.000, 0.000, 21:23:17.186, 1541902997186
27, 40655.36, 16114.47, 0.00, 0.00, 0.00, 0.00, -187500.02, -187500.02, 0.000, 0.000, 0.000, 21:23:17.187, 1541902997187
28, 40264.23, 15655.79, 0.00, 0.00, 0.00, 0.00, -187500.02, -187500.02, 0.000, 0.000, 0.000, 21:23:17.187, 1541902997187
29, 40085.89, 15447.36, 0.00, 0.00, 0.00, 0.00, -187500.02, -187500.02, 0.000, 0.000, 0.000, 21:23:17.187, 1541902997187
30, 40373.57, 15777.67, 0.00, 0.00, 0.00, 0.00, -187500.02, -187500.02, 0.000, 0.000, 0.000, 21:23:17.187, 1541902997187
31, 40683.39, 16135.03, 0.00, 0.00, 0.00, 0.00, -187500.02, -187500.02, 0.000, 0.000, 0.000, 21:23:17.188, 1541902997188
32, 40333.83, 15704.31, 0.00, 0.00, 0.00, 0.00, -187500.02, -187500.02, 0.000, 0.000, 0.000, 21:23:17.188, 1541902997188
33, 40067.20, 15402.21, 0.00, 0.00, 0.00, 0.00, -187500.02, -187500.02, 0.000, 0.000, 0.000, 21:23:17.188, 1541902997188
34, 40275.34, 15664.35, 0.00, 0.00, 0.00, 0.00, -187500.02, -187500.02, 0.284, 0.696, 0.602, 21:23:17.188, 1541902997188
35, 40670.36, 16144.96, 0.00, 0.00, 0.00, 0.00, -187500.02, -187500.02, 0.000, 0.000, 0.000, 21:23:17.188, 1541902997188
36, 40408.13, 15826.46, 0.00, 0.00, 0.00, 0.00, -187500.02, -187500.02, 0.000, 0.000, 0.000, 21:23:17.189, 1541902997189
37, 40097.20, 15454.24, 0.00, 0.00, 0.00, 0.00, -187500.02, -187500.02, 0.000, 0.000, 0.000, 21:23:17.189, 1541902997189
38, 40222.59, 15617.97, 0.00, 0.00, 0.00, 0.00, -187500.02, -187500.02, 0.000, 0.000, 0.000, 21:23:17.189, 1541902997189
39, 40639.14, 16118.07, 0.00, 0.00, 0.00, 0.00, -187500.02, -187500.02, 0.000, 0.000, 0.000, 21:23:17.190, 1541902997190
40, 40478.11, 15901.46, 0.00, 0.00, 0.00, 0.00, -187500.02, -187500.02, 0.000, 0.000, 0.000, 21:23:17.190, 1541902997190
41, 40107.01, 15449.88, 0.00, 0.00, 0.00, 0.00, -187500.02, -187500.02, 0.000, 0.000, 0.000, 21:23:17.208, 1541902997208
42, 40153.30, 15517.56, 0.00, 0.00, 0.00, 0.00, -187500.02, -187500.02, 0.000, 0.000, 0.000, 21:23:17.209, 1541902997209
43, 40575.66, 16031.32, 0.00, 0.00, 0.00, 0.00, -187500.02, -187500.02, 0.000, 0.000, 0.000, 21:23:17.210, 1541902997210
44, 40534.35, 15986.44, 0.00, 0.00, 0.00, 0.00, -187500.02, -187500.02, 0.288, 0.686, 0.600, 21:23:17.210, 1541902997210
45, 40145.92, 15515.51, 0.00, 0.00, 0.00, 0.00, -187500.02, -187500.02, 0.000, 0.000, 0.000, 21:23:17.210, 1541902997210
46, 40117.27, 15482.99, 0.00, 0.00, 0.00, 0.00, -187500.02, -187500.02, 0.000, 0.000, 0.000, 21:23:17.210, 1541902997210
0, 0.00, 0.00, 0.00, 0.00, 0.00, 0.00, 0.00, 0.00, 0.000, 0.000, 0.000, 21:23:17.210, 1541902997210
1, 39976.52, 15329.34, 0.00, 0.00, 0.00, 0.00, 0.00, -187500.02, 0.000, 0.000, 0.000, 21:23:17.260, 1541902997260
2, 40081.62, 15448.27, 0.00, 0.00, 0.00, 0.00, 0.00, -187500.02, 0.286, 0.686, 0.590, 21:23:17.260, 1541902997260
3, 40530.89, 15985.25, 0.00, 0.00, 0.00, 0.00, 0.00, -187500.02, 0.000, 0.000, 0.000, 21:23:17.260, 1541902997260
4, 40470.29, 15911.71, 0.00, 0.00, 0.00, 0.00, 0.00, -187500.02, 0.000, 0.000, 0.000, 21:23:17.260, 1541902997260
5, 40105.69, 15472.97, 0.00, 0.00, 0.00, 0.00, 0.00, -187500.02, 0.000, 0.000, 0.000, 21:23:17.260, 1541902997260
6, 40089.62, 15464.03, 0.00, 0.00, 0.00, 0.00, 0.00, -187500.02, 0.000, 0.000, 0.000, 21:23:17.261, 1541902997261
7, 40497.85, 15959.64, 0.00, 0.00, 0.00, 0.00, 0.00, -187500.02, 0.000, 0.000, 0.000, 21:23:17.261, 1541902997261
8, 40589.92, 16066.37, 0.00, 0.00, 0.00, 0.00, 0.00, -187500.02, 0.000, 0.000, 0.000, 21:23:17.261, 1541902997261
9, 40204.21, 15583.55, 0.00, 0.00, 0.00, 0.00, 0.00, -187500.02, 0.000, 0.000, 0.000, 21:23:17.261, 1541902997261
10, 40122.68, 15487.03, 0.00, 0.00, 0.00, 0.00, 0.00, -187500.02, 0.000, 0.000, 0.000, 21:23:17.262, 1541902997262
11, 40475.30, 15918.33, 0.00, 0.00, 0.00, 0.00, 0.00, -187500.02, 0.000, 0.000, 0.000, 21:23:17.262, 1541902997262
12, 40657.06, 16139.08, 0.00, 0.00, 0.00, 0.00, 0.00, -187500.02, 0.284, 0.696, 0.590, 21:23:17.435, 1541902997435
13, 40257.77, 15646.80, 0.00, 0.00, 0.00, 0.00, 0.00, -187500.02, 0.000, 0.000, 0.000, 21:23:17.435, 1541902997435
14, 40076.59, 15434.39, 0.00, 0.00, 0.00, 0.00, 0.00, -187500.02, 0.000, 0.000, 0.000, 21:23:17.435, 1541902997435
15, 40352.56, 15783.97, 0.00, 0.00, 0.00, 0.00, 0.00, -187500.02, 0.000, 0.000, 0.000, 21:23:17.435, 1541902997435
16, 40646.85, 16138.00, 0.00, 0.00, 0.00, 0.00, 0.00, -187500.02, 0.000, 0.000, 0.000, 21:23:17.435, 1541902997435
17, 40313.70, 15719.49, 0.00, 0.00, 0.00, 0.00, 0.00, -187500.02, 0.000, 0.000, 0.000, 21:23:17.435, 1541902997435
18, 40084.59, 15443.07, 0.00, 0.00, 0.00, 0.00, 0.00, -187500.02, 0.000, 0.000, 0.000, 21:23:17.435, 1541902997435
19, 40301.67, 15703.51, 0.00, 0.00, 0.00, 0.00, 0.00, -187500.02, 0.000, 0.000, 0.000, 21:23:17.436, 1541902997436
20, 40659.03, 16136.82, 0.00, 0.00, 0.00, 0.00, 0.00, -187500.02, 0.000, 0.000, 0.000, 21:23:17.436, 1541902997436
21, 40386.63, 15803.00, 0.00, 0.00, 0.00, 0.00, 0.00, -187500.02, 0.000, 0.000, 0.000, 21:23:17.436, 1541902997436
22, 40077.08, 15427.53, 0.00, 0.00, 0.00, 0.00, 0.00, -187500.02, 0.276, 0.686, 0.582, 21:23:17.436, 1541902997436
23, 40221.80, 15608.89, 0.00, 0.00, 0.00, 0.00, 0.00, -187500.02, 0.000, 0.000, 0.000, 21:23:17.436, 1541902997436
24, 40625.93, 16108.75, 0.00, 0.00, 0.00, 0.00, 0.00, -187500.02, 0.000, 0.000, 0.000, 21:23:17.436, 1541902997436
25, 40464.88, 15909.30, 0.00, 0.00, 0.00, 0.00, 0.00, -187500.02, 0.000, 0.000, 0.000, 21:23:17.436, 1541902997436
26, 40111.75, 15481.20, 0.00, 0.00, 0.00, 0.00, 0.00, -187500.02, 0.000, 0.000, 0.000, 21:23:17.436, 1541902997436
27, 40172.68, 15549.06, 0.00, 0.00, 0.00, 0.00, 0.00, -187500.02, 0.000, 0.000, 0.000, 21:23:17.436, 1541902997436
28, 40584.44, 16047.46, 0.00, 0.00, 0.00, 0.00, 0.00, -187500.02, 0.000, 0.000, 0.000, 21:23:17.436, 1541902997436
29, 40531.40, 15987.26, 0.00, 0.00, 0.00, 0.00, 0.00, -187500.02, 0.000, 0.000, 0.000, 21:23:17.436, 1541902997436
30, 40145.79, 15504.94, 0.00, 0.00, 0.00, 0.00, 0.00, -187500.02, 0.000, 0.000, 0.000, 21:23:17.437, 1541902997437
31, 40121.36, 15481.58, 0.00, 0.00, 0.00, 0.00, 0.00, -187500.02, 0.000, 0.000, 0.000, 21:23:17.437, 1541902997437
32, 40507.51, 15964.20, 0.00, 0.00, 0.00, 0.00, 0.00, -187500.02, 0.280, 0.702, 0.584, 21:23:17.437, 1541902997437
33, 40588.11, 16069.29, 0.00, 0.00, 0.00, 0.00, 0.00, -187500.02, 0.000, 0.000, 0.000, 21:23:17.437, 1541902997437
34, 40188.14, 15580.71, 0.00, 0.00, 0.00, 0.00, 0.00, -187500.02, 0.000, 0.000, 0.000, 21:23:17.437, 1541902997437
35, 40072.65, 15445.97, 0.00, 0.00, 0.00, 0.00, 0.00, -187500.02, 0.000, 0.000, 0.000, 21:23:17.437, 1541902997437
36, 40414.41, 15866.59, 0.00, 0.00, 0.00, 0.00, 0.00, -187500.02, 0.000, 0.000, 0.000, 21:23:17.437, 1541902997437
37, 40635.63, 16125.02, 0.00, 0.00, 0.00, 0.00, 0.00, -187500.02, 0.000, 0.000, 0.000, 21:23:17.437, 1541902997437
38, 40272.84, 15659.59, 0.00, 0.00, 0.00, 0.00, 0.00, -187500.02, 0.000, 0.000, 0.000, 21:23:17.437, 1541902997437
39, 40089.57, 15444.99, 0.00, 0.00, 0.00, 0.00, 0.00, -187500.02, 0.000, 0.000, 0.000, 21:23:17.437, 1541902997437
40, 40341.68, 15765.89, 0.00, 0.00, 0.00, 0.00, 0.00, -187500.02, 0.000, 0.000, 0.000, 21:23:17.437, 1541902997437
41, 40650.51, 16140.28, 0.00, 0.00, 0.00, 0.00, 0.00, -187500.02, 0.000, 0.000, 0.000, 21:23:17.437, 1541902997437
42, 40326.97, 15747.03, 0.00, 0.00, 0.00, 0.00, 0.00, -187500.02, 0.284, 0.696, 0.586, 21:23:17.438, 1541902997438
43, 40074.29, 15436.09, 0.00, 0.00, 0.00, 0.00, 0.00, -187500.02, 0.000, 0.000, 0.000, 21:23:17.438, 1541902997438
44, 40275.00, 15673.56, 0.00, 0.00, 0.00, 0.00, 0.00, -187500.02, 0.000, 0.000, 0.000, 21:23:17.438, 1541902997438
45, 40651.81, 16125.31, 0.00, 0.00, 0.00, 0.00, 0.00, -187500.02, 0.000, 0.000, 0.000, 21:23:17.438, 1541902997438
46, 40404.22, 15819.22, 0.00, 0.00, 0.00, 0.00, 0.00, -187500.02, 0.000, 0.000, 0.000, 21:23:17.438, 1541902997438
47, 40086.04, 15444.65, 0.00, 0.00, 0.00, 0.00, 0.00, -187500.02, 0.000, 0.000, 0.000, 21:23:17.438, 1541902997438
48, 40200.50, 15604.07, 0.00, 0.00, 0.00, 0.00, 0.00, -187500.02, 0.000, 0.000, 0.000, 21:23:17.438, 1541902997438
49, 40610.30, 16097.03, 0.00, 0.00, 0.00, 0.00, 0.00, -187500.02, 0.000, 0.000, 0.000, 21:23:17.438, 1541902997438
50, 40470.54, 15916.12, 0.00, 0.00, 0.00, 0.00, 0.00, -187500.02, 0.000, 0.000, 0.000, 21:23:17.438, 1541902997438
51, 40111.37, 15479.23, 0.00, 0.00, 0.00, 0.00, 0.00, -187500.02, 0.000, 0.000, 0.000, 21:23:17.438, 1541902997438
52, 40148.71, 15544.77, 0.00, 0.00, 0.00, 0.00, 0.00, -187500.02, 0.000, 0.000, 0.000, 21:23:17.438, 1541902997438
53, 40563.68, 16046.45, 0.00, 0.00, 0.00, 0.00, 0.00, -187500.02, 0.290, 0.696, 0.586, 21:23:17.438, 1541902997438
0, 0.00, 0.00, 0.00, 0.00, 0.00, 0.00, 0.00, 0.00, 0.000, 0.000, 0.000, 21:23:17.448, 1541902997448
1, 40255.40, 15709.99, 0.00, 0.00, 0.00, 0.00, 0.00, 0.00, 0.000, 0.000, 0.000, 21:23:17.605, 1541902997605
2, 40468.93, 15972.91, 0.00, 0.00, 0.00, 0.00, 0.00, 0.00, 0.000, 0.000, 0.000, 21:23:17.606, 1541902997606
3, 40142.41, 15555.99, 0.00, 0.00, 0.00, 0.00, 0.00, 0.00, 0.290, 0.696, 0.588, 21:23:17.606, 1541902997606
4, 40006.67, 15400.58, 0.00, 0.00, 0.00, 0.00, 0.00, 0.00, 0.000, 0.000, 0.000, 21:23:17.606, 1541902997606
5, 40293.27, 15760.01, 0.00, 0.00, 0.00, 0.00, 0.00, 0.00, 0.000, 0.000, 0.000, 21:23:17.606, 1541902997606
6, 40590.01, 16117.80, 0.00, 0.00, 0.00, 0.00, 0.00, 0.00, 0.000, 0.000, 0.000, 21:23:17.606, 1541902997606
7, 40273.75, 15718.66, 0.00, 0.00, 0.00, 0.00, 0.00, 0.00, 0.000, 0.000, 0.000, 21:23:17.606, 1541902997606
8, 40046.93, 15441.77, 0.00, 0.00, 0.00, 0.00, 0.00, 0.00, 0.000, 0.000, 0.000, 21:23:17.606, 1541902997606
9, 40255.47, 15697.36, 0.00, 0.00, 0.00, 0.00, 0.00, 0.00, 0.000, 0.000, 0.000, 21:23:17.606, 1541902997606
10, 40620.61, 16126.18, 0.00, 0.00, 0.00, 0.00, 0.00, 0.00, 0.000, 0.000, 0.000, 21:23:17.606, 1541902997606
11, 40350.15, 15784.22, 0.00, 0.00, 0.00, 0.00, 0.00, 0.00, 0.000, 0.000, 0.000, 21:23:17.607, 1541902997607
12, 40054.44, 15438.57, 0.00, 0.00, 0.00, 0.00, 0.00, 0.00, 0.000, 0.000, 0.000, 21:23:17.607, 1541902997607
13, 40199.90, 15620.92, 0.00, 0.00, 0.00, 0.00, 0.00, 0.00, 0.282, 0.696, 0.594, 21:23:17.607, 1541902997607
14, 40598.86, 16107.07, 0.00, 0.00, 0.00, 0.00, 0.00, 0.00, 0.000, 0.000, 0.000, 21:23:17.607, 1541902997607
15, 40430.37, 15900.78, 0.00, 0.00, 0.00, 0.00, 0.00, 0.00, 0.000, 0.000, 0.000, 21:23:17.607, 1541902997607
16, 40087.59, 15479.68, 0.00, 0.00, 0.00, 0.00, 0.00, 0.00, 0.000, 0.000, 0.000, 21:23:17.607, 1541902997607
17, 40149.48, 15567.16, 0.00, 0.00, 0.00, 0.00, 0.00, 0.00, 0.000, 0.000, 0.000, 21:23:17.607, 1541902997607
18, 40553.68, 16065.41, 0.00, 0.00, 0.00, 0.00, 0.00, 0.00, 0.000, 0.000, 0.000, 21:23:17.607, 1541902997607
19, 40501.56, 16001.57, 0.00, 0.00, 0.00, 0.00, 0.00, 0.00, 0.000, 0.000, 0.000, 21:23:17.607, 1541902997607
20, 40117.49, 15532.14, 0.00, 0.00, 0.00, 0.00, 0.00, 0.00, 0.000, 0.000, 0.000, 21:23:17.607, 1541902997607
21, 40092.05, 15500.89, 0.00, 0.00, 0.00, 0.00, 0.00, 0.00, 0.000, 0.000, 0.000, 21:23:17.607, 1541902997607
22, 40476.66, 15961.69, 0.00, 0.00, 0.00, 0.00, 0.00, 0.00, 0.000, 0.000, 0.000, 21:23:17.607, 1541902997607
23, 40570.49, 16072.87, 0.00, 0.00, 0.00, 0.00, 0.00, 0.00, 0.272, 0.694, 0.596, 21:23:17.608, 1541902997608
24, 40182.04, 15600.33, 0.00, 0.00, 0.00, 0.00, 0.00, 0.00, 0.000, 0.000, 0.000, 21:23:17.608, 1541902997608
25, 40080.43, 15488.93, 0.00, 0.00, 0.00, 0.00, 0.00, 0.00, 0.000, 0.000, 0.000, 21:23:17.608, 1541902997608
26, 40410.48, 15897.16, 0.00, 0.00, 0.00, 0.00, 0.00, 0.00, 0.000, 0.000, 0.000, 21:23:17.608, 1541902997608
27, 40608.36, 16123.70, 0.00, 0.00, 0.00, 0.00, 0.00, 0.00, 0.000, 0.000, 0.000, 21:23:17.608, 1541902997608
28, 40236.69, 15657.26, 0.00, 0.00, 0.00, 0.00, 0.00, 0.00, 0.000, 0.000, 0.000, 21:23:17.608, 1541902997608
29, 40063.51, 15457.33, 0.00, 0.00, 0.00, 0.00, 0.00, 0.00, 0.000, 0.000, 0.000, 21:23:17.608, 1541902997608
30, 40339.20, 15799.84, 0.00, 0.00, 0.00, 0.00, 0.00, 0.00, 0.000, 0.000, 0.000, 21:23:17.608, 1541902997608
31, 40637.14, 16153.92, 0.00, 0.00, 0.00, 0.00, 0.00, 0.00, 0.000, 0.000, 0.000, 21:23:17.608, 1541902997608
32, 40306.34, 15737.37, 0.00, 0.00, 0.00, 0.00, 0.00, 0.00, 0.000, 0.000, 0.000, 21:23:17.608, 1541902997608
33, 40057.95, 15436.70, 0.00, 0.00, 0.00, 0.00, 0.00, 0.00, 0.272, 0.694, 0.594, 21:23:17.608, 1541902997608
34, 40257.82, 15694.30, 0.00, 0.00, 0.00, 0.00, 0.00, 0.00, 0.000, 0.000, 0.000, 21:23:17.608, 1541902997608
35, 40624.99, 16141.83, 0.00, 0.00, 0.00, 0.00, 0.00, 0.00, 0.000, 0.000, 0.000, 21:23:17.609, 1541902997609
36, 40393.18, 15836.34, 0.00, 0.00, 0.00, 0.00, 0.00, 0.00, 0.000, 0.000, 0.000, 21:23:17.609, 1541902997609
37, 40080.83, 15458.35, 0.00, 0.00, 0.00, 0.00, 0.00, 0.00, 0.000, 0.000, 0.000, 21:23:17.609, 1541902997609
38, 40187.30, 15613.63, 0.00, 0.00, 0.00, 0.00, 0.00, 0.00, 0.000, 0.000, 0.000, 21:23:17.938, 1541902997938
39, 40585.80, 16104.97, 0.00, 0.00, 0.00, 0.00, 0.00, 0.00, 0.000, 0.000, 0.000, 21:23:17.939, 1541902997939
40, 40444.81, 15929.57, 0.00, 0.00, 0.00, 0.00, 0.00, 0.00, 0.000, 0.000, 0.000, 21:23:17.939, 1541902997939
41, 40095.36, 15499.62, 0.00, 0.00, 0.00, 0.00, 0.00, 0.00, 0.000, 0.000, 0.000, 21:23:17.939, 1541902997939
42, 40136.78, 15547.85, 0.00, 0.00, 0.00, 0.00, 0.00, 0.00, 0.000, 0.000, 0.000, 21:23:17.939, 1541902997939
43, 40543.54, 16024.95, 0.00, 0.00, 0.00, 0.00, 0.00, 0.00, 0.278, 0.690, 0.590, 21:23:17.939, 1541902997939
44, 40524.27, 15990.01, 0.00, 0.00, 0.00, 0.00, 0.00, 0.00, 0.000, 0.000, 0.000, 21:23:17.939, 1541902997939
45, 40143.93, 15532.27, 0.00, 0.00, 0.00, 0.00, 0.00, 0.00, 0.000, 0.000, 0.000, 21:23:17.939, 1541902997939
46, 40097.20, 15491.08, 0.00, 0.00, 0.00, 0.00, 0.00, 0.00, 0.000, 0.000, 0.000, 21:23:17.939, 1541902997939
47, 40464.28, 15943.86, 0.00, 0.00, 0.00, 0.00, 0.00, 0.00, 0.000, 0.000, 0.000, 21:23:17.939, 1541902997939
48, 40567.54, 16065.18, 0.00, 0.00, 0.00, 0.00, 0.00, 0.00, 0.000, 0.000, 0.000, 21:23:17.939, 1541902997939
49, 40173.66, 15593.92, 0.00, 0.00, 0.00, 0.00, 0.00, 0.00, 0.000, 0.000, 0.000, 21:23:17.939, 1541902997939
50, 40056.76, 15460.10, 0.00, 0.00, 0.00, 0.00, 0.00, 0.00, 0.000, 0.000, 0.000, 21:23:17.939, 1541902997939
51, 40373.48, 15845.29, 0.00, 0.00, 0.00, 0.00, 0.00, 0.00, 0.000, 0.000, 0.000, 21:23:17.939, 1541902997939
52, 40603.51, 16115.52, 0.00, 0.00, 0.00, 0.00, 0.00, 0.00, 0.000, 0.000, 0.000, 21:23:17.939, 1541902997939
53, 40243.62, 15669.44, 0.00, 0.00, 0.00, 0.00, 0.00, 0.00, 0.278, 0.696, 0.594, 21:23:17.940, 1541902997940
54, 40057.92, 15443.45, 0.00, 0.00, 0.00, 0.00, 0.00, 0.00, 0.000, 0.000, 0.000, 21:23:17.940, 1541902997940
55, 40321.88, 15768.35, 0.00, 0.00, 0.00, 0.00, 0.00, 0.00, 0.000, 0.000, 0.000, 21:23:17.940, 1541902997940
56, 40642.80, 16160.24, 0.00, 0.00, 0.00, 0.00, 0.00, 0.00, 0.000, 0.000, 0.000, 21:23:17.940, 1541902997940
57, 40328.80, 15768.06, 0.00, 0.00, 0.00, 0.00, 0.00, 0.00, 0.000, 0.000, 0.000, 21:23:17.940, 1541902997940
58, 40055.73, 15427.73, 0.00, 0.00, 0.00, 0.00, 0.00, 0.00, 0.000, 0.000, 0.000, 21:23:17.940, 1541902997940
59, 40223.89, 15643.90, 0.00, 0.00, 0.00, 0.00, 0.00, 0.00, 0.000, 0.000, 0.000, 21:23:17.940, 1541902997940
60, 40591.48, 16095.78, 0.00, 0.00, 0.00, 0.00, 0.00, 0.00, 0.000, 0.000, 0.000, 21:23:17.940, 1541902997940
61, 40386.45, 15832.90, 0.00, 0.00, 0.00, 0.00, 0.00, 0.00, 0.000, 0.000, 0.000, 21:23:17.940, 1541902997940
62, 40060.83, 15447.69, 0.00, 0.00, 0.00, 0.00, 0.00, 0.00, 0.000, 0.000, 0.000, 21:23:17.940, 1541902997940
63, 40160.45, 15576.51, 0.00, 0.00, 0.00, 0.00, 0.00, 0.00, 0.000, 0.000, 0.000, 21:23:17.940, 1541902997940
64, 40571.05, 16072.45, 0.00, 0.00, 0.00, 0.00, 0.00, 0.00, 0.272, 0.694, 0.598, 21:23:17.940, 1541902997940
65, 40460.12, 15933.08, 0.00, 0.00, 0.00, 0.00, 0.00, 0.00, 0.000, 0.000, 0.000, 21:23:17.940, 1541902997940
66, 40101.09, 15496.55, 0.00, 0.00, 0.00, 0.00, 0.00, 0.00, 0.000, 0.000, 0.000, 21:23:17.940, 1541902997940
67, 40111.39, 15517.61, 0.00, 0.00, 0.00, 0.00, 0.00, 0.00, 0.000, 0.000, 0.000, 21:23:17.940, 1541902997940
68, 40498.57, 15986.21, 0.00, 0.00, 0.00, 0.00, 0.00, 0.00, 0.000, 0.000, 0.000, 21:23:17.940, 1541902997940
69, 40519.80, 15997.12, 0.00, 0.00, 0.00, 0.00, 0.00, 0.00, 0.000, 0.000, 0.000, 21:23:17.941, 1541902997941
70, 40142.86, 15531.24, 0.00, 0.00, 0.00, 0.00, 0.00, 0.00, 0.000, 0.000, 0.000, 21:23:17.941, 1541902997941
71, 40078.42, 15467.61, 0.00, 0.00, 0.00, 0.00, 0.00, 0.00, 0.000, 0.000, 0.000, 21:23:17.941, 1541902997941
72, 40437.55, 15909.48, 0.00, 0.00, 0.00, 0.00, 0.00, 0.00, 0.000, 0.000, 0.000, 21:23:17.941, 1541902997941
74, 40166.55, 15597.56, 0.00, 0.00, 0.00, 0.00, 0.00, 0.00, 0.276, 0.708, 0.594, 21:23:17.941, 1541902997941
75, 40021.20, 15426.68, 0.00, 0.00, 0.00, 0.00, 0.00, 0.00, 0.000, 0.000, 0.000, 21:23:17.941, 1541902997941
76, 40347.65, 15808.54, 0.00, 0.00, 0.00, 0.00, 0.00, 0.00, 0.000, 0.000, 0.000, 21:23:17.941, 1541902997941
77, 40589.34, 16112.63, 0.00, 0.00, 0.00, 0.00, 0.00, 0.00, 0.000, 0.000, 0.000, 21:23:17.941, 1541902997941
78, 40245.41, 15690.77, 0.00, 0.00, 0.00, 0.00, 0.00, 0.00, 0.000, 0.000, 0.000, 21:23:17.941, 1541902997941
79, 40044.96, 15445.30, 0.00, 0.00, 0.00, 0.00, 0.00, 0.00, 0.000, 0.000, 0.000, 21:23:17.941, 1541902997941
80, 40292.95, 15723.13, 0.00, 0.00, 0.00, 0.00, 0.00, 0.00, 0.000, 0.000, 0.000, 21:23:17.941, 1541902997941
81, 40614.13, 16105.75, 0.00, 0.00, 0.00, 0.00, 0.00, 0.00, 0.000, 0.000, 0.000, 21:23:17.941, 1541902997941
82, 40307.10, 15748.79, 0.00, 0.00, 0.00, 0.00, 0.00, 0.00, 0.000, 0.000, 0.000, 21:23:17.941, 1541902997941
83, 40046.28, 15439.98, 0.00, 0.00, 0.00, 0.00, 0.00, 0.00, 0.000, 0.000, 0.000, 21:23:17.942, 1541902997942
84, 40199.52, 15621.25, 0.00, 0.00, 0.00, 0.00, 0.00, 0.00, 0.280, 0.700, 0.610, 21:23:17.942, 1541902997942
85, 40572.75, 16078.35, 0.00, 0.00, 0.00, 0.00, 0.00, 0.00, 0.000, 0.000, 0.000, 21:23:17.942, 1541902997942
86, 40373.24, 15835.90, 0.00, 0.00, 0.00, 0.00, 0.00, 0.00, 0.000, 0.000, 0.000, 21:23:17.942, 1541902997942
87, 40051.84, 15445.23, 0.00, 0.00, 0.00, 0.00, 0.00, 0.00, 0.000, 0.000, 0.000, 21:23:17.942, 1541902997942
88, 40147.98, 15576.33, 0.00, 0.00, 0.00, 0.00, 0.00, 0.00, 0.000, 0.000, 0.000, 21:23:17.942, 1541902997942
89, 40550.54, 16063.62, 0.00, 0.00, 0.00, 0.00, 0.00, 0.00, 0.000, 0.000, 0.000, 21:23:17.942, 1541902997942
90, 40477.29, 15946.27, 0.00, 0.00, 0.00, 0.00, 0.00, 0.00, 0.000, 0.000, 0.000, 21:23:17.942, 1541902997942
91, 40106.72, 15498.41, 0.00, 0.00, 0.00, 0.00, 0.00, 0.00, 0.000, 0.000, 0.000, 21:23:17.942, 1541902997942
92, 40100.13, 15492.71, 0.00, 0.00, 0.00, 0.00, 0.00, 0.00, 0.000, 0.000, 0.000, 21:23:17.942, 1541902997942
93, 40465.35, 15938.54, 0.00, 0.00, 0.00, 0.00, 0.00, 0.00, 0.000, 0.000, 0.000, 21:23:17.942, 1541902997942
94, 40478.47, 15954.05, 0.00, 0.00, 0.00, 0.00, 0.00, 0.00, 0.276, 0.686, 0.614, 21:23:17.942, 1541902997942
95, 40081.06, 15461.46, 0.00, 0.00, 0.00, 0.00, 0.00, 0.00, 0.000, 0.000, 0.000, 21:23:17.942, 1541902997942
96, 40010.61, 15376.59, 0.00, 0.00, 0.00, 0.00, 0.00, 0.00, 0.000, 0.000, 0.000, 21:23:17.942, 1541902997942
97, 40361.19, 15798.30, 0.00, 0.00, 0.00, 0.00, 0.00, 0.00, 0.000, 0.000, 0.000, 21:23:17.942, 1541902997942
98, 40530.24, 16005.73, 0.00, 0.00, 0.00, 0.00, 0.00, 0.00, 0.000, 0.000, 0.000, 21:23:17.943, 1541902997943
99, 40142.86, 15512.83, 0.00, 0.00, 0.00, 0.00, 0.00, 0.00, 0.000, 0.000, 0.000, 21:23:17.943, 1541902997943
100, 40013.49, 15342.19, 0.00, 0.00, 0.00, 0.00, 0.00, 0.00, 0.000, 0.000, 0.000, 21:23:17.943, 1541902997943
101, 40301.69, 15710.10, 0.00, 0.00, 0.00, 0.00, 0.00, 0.00, 0.000, 0.000, 0.000, 21:23:17.943, 1541902997943
102, 40554.98, 16034.76, 0.00, 0.00, 0.00, 0.00, 0.00, 0.00, 0.000, 0.000, 0.000, 21:23:17.943, 1541902997943
103, 40226.52, 15624.74, 0.00, 0.00, 0.00, 0.00, 0.00, 0.00, 0.000, 0.000, 0.000, 21:23:17.943, 1541902997943
104, 39999.25, 15346.19, 0.00, 0.00, 0.00, 0.00, 0.00, 0.00, 0.288, 0.690, 0.600, 21:23:17.943, 1541902997943
105, 40190.40, 15576.80, 0.00, 0.00, 0.00, 0.00, 0.00, 0.00, 0.000, 0.000, 0.000, 21:23:17.943, 1541902997943
106, 40507.11, 15951.14, 0.00, 0.00, 0.00, 0.00, 0.00, 0.00, 0.000, 0.000, 0.000, 21:23:17.943, 1541902997943
107, 40365.13, 15789.79, 0.00, 0.00, 0.00, 0.00, 0.00, 0.00, 0.000, 0.000, 0.000, 21:23:17.943, 1541902997943
108, 40218.25, 15623.85, 0.00, 0.00, 0.00, 0.00, 0.00, 0.00, 0.000, 0.000, 0.000, 21:23:17.943, 1541902997943
109, 40286.76, 15704.09, 0.00, 0.00, 0.00, 0.00, 0.00, 0.00, 0.000, 0.000, 0.000, 21:23:17.943, 1541902997943
110, 40446.80, 15876.38, 0.00, 0.00, 0.00, 0.00, 0.00, 0.00, 0.000, 0.000, 0.000, 21:23:17.943, 1541902997943
111, 40292.17, 15707.38, 0.00, 0.00, 0.00, 0.00, 0.00, 0.00, 0.000, 0.000, 0.000, 21:23:17.943, 1541902997943
112, 40153.45, 15559.43, 0.00, 0.00, 0.00, 0.00, 0.00, 0.00, 0.000, 0.000, 0.000, 21:23:17.943, 1541902997943
113, 40234.86, 15653.75, 0.00, 0.00, 0.00, 0.00, 0.00, 0.00, 0.000, 0.000, 0.000, 21:23:17.943, 1541902997943
114, 40438.28, 15867.23, 0.00, 0.00, 0.00, 0.00, 0.00, 0.00, 0.292, 0.686, 0.580, 21:23:17.943, 1541902997943
115, 40343.49, 15759.92, 0.00, 0.00, 0.00, 0.00, 0.00, 0.00, 0.000, 0.000, 0.000, 21:23:17.944, 1541902997944
116, 40167.94, 15573.31, 0.00, 0.00, 0.00, 0.00, 0.00, 0.00, 0.000, 0.000, 0.000, 21:23:17.944, 1541902997944
117, 40209.96, 15615.46, 0.00, 0.00, 0.00, 0.00, 0.00, 0.00, 0.000, 0.000, 0.000, 21:23:17.944, 1541902997944
118, 40397.31, 15814.48, 0.00, 0.00, 0.00, 0.00, 0.00, 0.00, 0.000, 0.000, 0.000, 21:23:17.944, 1541902997944
119, 40354.96, 15782.23, 0.00, 0.00, 0.00, 0.00, 0.00, 0.00, 0.000, 0.000, 0.000, 21:23:17.944, 1541902997944
120, 40186.45, 15584.15, 0.00, 0.00, 0.00, 0.00, 0.00, 0.00, 0.000, 0.000, 0.000, 21:23:17.944, 1541902997944
121, 40200.75, 15590.99, 0.00, 0.00, 0.00, 0.00, 0.00, 0.00, 0.000, 0.000, 0.000, 21:23:18.041, 1541902998041
122, 40358.22, 15782.75, 0.00, 0.00, 0.00, 0.00, 0.00, 0.00, 0.000, 0.000, 0.000, 21:23:18.041, 1541902998041
123, 40386.27, 15828.23, 0.00, 0.00, 0.00, 0.00, 0.00, 0.00, 0.000, 0.000, 0.000, 21:23:18.041, 1541902998041
124, 40205.15, 15629.17, 0.00, 0.00, 0.00, 0.00, 0.00, 0.00, 0.290, 0.700, 0.580, 21:23:18.041, 1541902998041
125, 40182.40, 15600.67, 0.00, 0.00, 0.00, 0.00, 0.00, 0.00, 0.000, 0.000, 0.000, 21:23:18.041, 1541902998041
126, 40348.72, 15769.18, 0.00, 0.00, 0.00, 0.00, 0.00, 0.00, 0.000, 0.000, 0.000, 21:23:18.041, 1541902998041
127, 40422.61, 15854.27, 0.00, 0.00, 0.00, 0.00, 0.00, 0.00, 0.000, 0.000, 0.000, 21:23:18.041, 1541902998041
128, 40239.44, 15653.89, 0.00, 0.00, 0.00, 0.00, 0.00, 0.00, 0.000, 0.000, 0.000, 21:23:18.041, 1541902998041
129, 40184.01, 15579.41, 0.00, 0.00, 0.00, 0.00, 0.00, 0.00, 0.000, 0.000, 0.000, 21:23:18.041, 1541902998041
130, 40308.42, 15720.05, 0.00, 0.00, 0.00, 0.00, 0.00, 0.00, 0.000, 0.000, 0.000, 21:23:18.042, 1541902998042
131, 40434.91, 15868.42, 0.00, 0.00, 0.00, 0.00, 0.00, 0.00, 0.000, 0.000, 0.000, 21:23:18.042, 1541902998042
132, 40269.08, 15696.18, 0.00, 0.00, 0.00, 0.00, 0.00, 0.00, 0.000, 0.000, 0.000, 21:23:18.042, 1541902998042
133, 40182.96, 15598.90, 0.00, 0.00, 0.00, 0.00, 0.00, 0.00, 0.000, 0.000, 0.000, 21:23:18.042, 1541902998042
134, 40288.23, 15693.54, 0.00, 0.00, 0.00, 0.00, 0.00, 0.00, 0.000, 0.000, 0.000, 21:23:18.042, 1541902998042
135, 40436.67, 15851.66, 0.00, 0.00, 0.00, 0.00, 0.00, 0.00, 0.288, 0.684, 0.582, 21:23:18.042, 1541902998042
136, 40288.73, 15714.08, 0.00, 0.00, 0.00, 0.00, 0.00, 0.00, 0.000, 0.000, 0.000, 21:23:18.042, 1541902998042
137, 40169.30, 15594.52, 0.00, 0.00, 0.00, 0.00, 0.00, 0.00, 0.000, 0.000, 0.000, 21:23:18.043, 1541902998043
138, 40240.89, 15654.78, 0.00, 0.00, 0.00, 0.00, 0.00, 0.00, 0.000, 0.000, 0.000, 21:23:18.043, 1541902998043
139, 40406.54, 15824.68, 0.00, 0.00, 0.00, 0.00, 0.00, 0.00, 0.000, 0.000, 0.000, 21:23:18.043, 1541902998043
140, 40317.63, 15745.26, 0.00, 0.00, 0.00, 0.00, 0.00, 0.00, 0.000, 0.000, 0.000, 21:23:18.043, 1541902998043
141, 40177.55, 15599.10, 0.00, 0.00, 0.00, 0.00, 0.00, 0.00, 0.000, 0.000, 0.000, 21:23:18.043, 1541902998043
142, 40216.44, 15635.60, 0.00, 0.00, 0.00, 0.00, 0.00, 0.00, 0.000, 0.000, 0.000, 21:23:18.043, 1541902998043
143, 40396.78, 15828.07, 0.00, 0.00, 0.00, 0.00, 0.00, 0.00, 0.000, 0.000, 0.000, 21:23:18.043, 1541902998043
144, 40358.89, 15792.20, 0.00, 0.00, 0.00, 0.00, 0.00, 0.00, 0.000, 0.000, 0.000, 21:23:18.043, 1541902998043
145, 40192.44, 15615.60, 0.00, 0.00, 0.00, 0.00, 0.00, 0.00, 0.278, 0.676, 0.588, 21:23:18.043, 1541902998043
146, 40199.23, 15615.91, 0.00, 0.00, 0.00, 0.00, 0.00, 0.00, 0.000, 0.000, 0.000, 21:23:18.043, 1541902998043
226, 40305.40, 15770.47, 0.00, 0.00, 0.00, 0.00, 0.00, 0.00, 0.292, 0.678, 0.632, 21:23:18.826, 1541902998826
227, 40413.23, 15886.97, 0.00, 0.00, 0.00, 0.00, 0.00, 0.00, 0.000, 0.000, 0.000, 21:23:18.827, 1541902998827
228, 40226.68, 15695.46, 0.00, 0.00, 0.00, 0.00, 0.00, 0.00, 0.000, 0.000, 0.000, 21:23:18.827, 1541902998827
229, 40148.05, 15594.81, 0.00, 0.00, 0.00, 0.00, 0.00, 0.00, 0.000, 0.000, 0.000, 21:23:18.827, 1541902998827
230, 40248.18, 15701.99, 0.00, 0.00, 0.00, 0.00, 0.00, 0.00, 0.000, 0.000, 0.000, 21:23:18.827, 1541902998827
231, 40383.66, 15853.51, 0.00, 0.00, 0.00, 0.00, 0.00, 0.00, 0.000, 0.000, 0.000, 21:23:18.827, 1541902998827
232, 40221.16, 15692.31, 0.00, 0.00, 0.00, 0.00, 0.00, 0.00, 0.000, 0.000, 0.000, 21:23:18.827, 1541902998827
233, 40135.59, 15598.83, 0.00, 0.00, 0.00, 0.00, 0.00, 0.00, 0.000, 0.000, 0.000, 21:23:18.827, 1541902998827
234, 40217.05, 15678.65, 0.00, 0.00, 0.00, 0.00, 0.00, 0.00, 0.000, 0.000, 0.000, 21:23:18.827, 1541902998827
235, 40373.29, 15840.01, 0.00, 0.00, 0.00, 0.00, 0.00, 0.00, 0.000, 0.000, 0.000, 21:23:18.827, 1541902998827
236, 40259.18, 15732.90, 0.00, 0.00, 0.00, 0.00, 0.00, 0.00, 0.276, 0.660, 0.630, 21:23:18.828, 1541902998828
237, 40138.28, 15611.71, 0.00, 0.00, 0.00, 0.00, 0.00, 0.00, 0.000, 0.000, 0.000, 21:23:18.828, 1541902998828
238, 40202.54, 15687.04, 0.00, 0.00, 0.00, 0.00, 0.00, 0.00, 0.000, 0.000, 0.000, 21:23:18.828, 1541902998828
239, 40391.79, 15893.83, 0.00, 0.00, 0.00, 0.00, 0.00, 0.00, 0.000, 0.000, 0.000, 21:23:18.828, 1541902998828
240, 40305.00, 15800.72, 0.00, 0.00, 0.00, 0.00, 0.00, 0.00, 0.000, 0.000, 0.000, 21:23:18.828, 1541902998828
241, 40138.84, 15610.50, 0.00, 0.00, 0.00, 0.00, 0.00, 0.00, 0.000, 0.000, 0.000, 21:23:18.828, 1541902998828
242, 40175.80, 15636.59, 0.00, 0.00, 0.00, 0.00, 0.00, 0.00, 0.000, 0.000, 0.000, 21:23:18.828, 1541902998828
243, 40342.35, 15815.56, 0.00, 0.00, 0.00, 0.00, 0.00, 0.00, 0.000, 0.000, 0.000, 21:23:18.828, 1541902998828
244, 40314.88, 15808.85, 0.00, 0.00, 0.00, 0.00, 0.00, 0.00, 0.000, 0.000, 0.000, 21:23:18.828, 1541902998828
245, 40136.33, 15627.98, 0.00, 0.00, 0.00, 0.00, 0.00, 0.00, 0.000, 0.000, 0.000, 21:23:18.828, 1541902998828
246, 40146.75, 15626.33, 0.00, 0.00, 0.00, 0.00, 0.00, 0.00, 0.278, 0.656, 0.624, 21:23:18.829, 1541902998829
247, 40319.37, 15793.94, 0.00, 0.00, 0.00, 0.00, 0.00, 0.00, 0.000, 0.000, 0.000, 21:23:18.829, 1541902998829
248, 40370.27, 15867.35, 0.00, 0.00, 0.00, 0.00, 0.00, 0.00, 0.000, 0.000, 0.000, 21:23:18.829, 1541902998829
249, 40175.25, 15676.31, 0.00, 0.00, 0.00, 0.00, 0.00, 0.00, 0.000, 0.000, 0.000, 21:23:18.829, 1541902998829
250, 40146.08, 15628.83, 0.00, 0.00, 0.00, 0.00, 0.00, 0.00, 0.000, 0.000, 0.000, 21:23:18.829, 1541902998829
251, 40280.52, 15770.12, 0.00, 0.00, 0.00, 0.00, 0.00, 0.00, 0.000, 0.000, 0.000, 21:23:18.829, 1541902998829
252, 40376.79, 15895.98, 0.00, 0.00, 0.00, 0.00, 0.00, 0.00, 0.000, 0.000, 0.000, 21:23:18.829, 1541902998829
253, 40196.46, 15738.26, 0.00, 0.00, 0.00, 0.00, 0.00, 0.00, 0.000, 0.000, 0.000, 21:23:18.829, 1541902998829
254, 40136.89, 15673.20, 0.00, 0.00, 0.00, 0.00, 0.00, 0.00, 0.000, 0.000, 0.000, 21:23:18.829, 1541902998829
255, 40250.26, 15783.48, 0.00, 0.00, 0.00, 0.00, 0.00, 0.00, 0.000, 0.000, 0.000, 21:23:18.830, 1541902998830
0, 40383.41, 15926.91, 0.00, 0.00, 0.00, 0.00, 0.00, 0.00, 0.292, 0.666, 0.616, 21:23:18.830, 1541902998830
1, 40239.91, 15795.71, 0.00, 0.00, 0.00, 0.00, 0.00, 0.00, 0.000, 0.000, 0.000, 21:23:18.830, 1541902998830
2, 40148.56, 15712.58, 0.00, 0.00, 0.00, 0.00, 0.00, 0.00, 0.000, 0.000, 0.000, 21:23:18.830, 1541902998830
3, 40229.23, 15789.09, 0.00, 0.00, 0.00, 0.00, 0.00, 0.00, 0.000, 0.000, 0.000, 21:23:18.830, 1541902998830
4, 40407.04, 15956.15, 0.00, 0.00, 0.00, 0.00, 0.00, 0.00, 0.000, 0.000, 0.000, 21:23:18.830, 1541902998830
5, 40299.28, 15855.88, 0.00, 0.00, 0.00, 0.00, 0.00, 0.00, 0.000, 0.000, 0.000, 21:23:18.830, 1541902998830
6, 40162.86, 15715.49, 0.00, 0.00, 0.00, 0.00, 0.00, 0.00, 0.000, 0.000, 0.000, 21:23:18.830, 1541902998830
7, 40227.30, 15779.73, 0.00, 0.00, 0.00, 0.00, 0.00, 0.00, 0.000, 0.000, 0.000, 21:23:18.830, 1541902998830
8, 40394.74, 15952.44, 0.00, 0.00, 0.00, 0.00, 0.00, 0.00, 0.000, 0.000, 0.000, 21:23:18.831, 1541902998831
9, 40343.85, 15914.67, 0.00, 0.00, 0.00, 0.00, 0.00, 0.00, 0.000, 0.000, 0.000, 21:23:18.831, 1541902998831
10, 40194.07, 15767.34, 0.00, 0.00, 0.00, 0.00, 0.00, 0.00, 0.296, 0.664, 0.620, 21:23:18.831, 1541902998831
11, 40223.35, 15788.47, 0.00, 0.00, 0.00, 0.00, 0.00, 0.00, 0.000, 0.000, 0.000, 21:23:18.831, 1541902998831
12, 40393.56, 15934.56, 0.00, 0.00, 0.00, 0.00, 0.00, 0.00, 0.000, 0.000, 0.000, 21:23:18.831, 1541902998831
13, 40385.62, 15923.63, 0.00, 0.00, 0.00, 0.00, 0.00, 0.00, 0.000, 0.000, 0.000, 21:23:18.831, 1541902998831
14, 40212.24, 15749.20, 0.00, 0.00, 0.00, 0.00, 0.00, 0.00, 0.000, 0.000, 0.000, 21:23:18.832, 1541902998832
15, 40204.82, 15737.13, 0.00, 0.00, 0.00, 0.00, 0.00, 0.00, 0.000, 0.000, 0.000, 21:23:18.832, 1541902998832
16, 40357.08, 15890.86, 0.00, 0.00, 0.00, 0.00, 0.00, 0.00, 0.000, 0.000, 0.000, 21:23:18.832, 1541902998832
17, 40417.21, 15963.68, 0.00, 0.00, 0.00, 0.00, 0.00, 0.00, 0.000, 0.000, 0.000, 21:23:18.832, 1541902998832
18, 40222.23, 15778.81, 0.00, 0.00, 0.00, 0.00, 0.00, 0.00, 0.000, 0.000, 0.000, 21:23:18.832, 1541902998832
19, 40188.91, 15744.01, 0.00, 0.00, 0.00, 0.00, 0.00, 0.00, 0.000, 0.000, 0.000, 21:23:18.833, 1541902998833
20, 40328.09, 15875.06, 0.00, 0.00, 0.00, 0.00, 0.00, 0.00, 0.302, 0.656, 0.618, 21:23:18.833, 1541902998833
21, 40442.08, 15984.94, 0.00, 0.00, 0.00, 0.00, 0.00, 0.00, 0.000, 0.000, 0.000, 21:23:18.833, 1541902998833
22, 40267.70, 15822.15, 0.00, 0.00, 0.00, 0.00, 0.00, 0.00, 0.000, 0.000, 0.000, 21:23:18.833, 1541902998833
23, 40206.50, 15765.02, 0.00, 0.00, 0.00, 0.00, 0.00, 0.00, 0.000, 0.000, 0.000, 21:23:18.833, 1541902998833
24, 40310.63, 15864.06, 0.00, 0.00, 0.00, 0.00, 0.00, 0.00, 0.000, 0.000, 0.000, 21:23:18.834, 1541902998834
25, 40444.05, 15987.84, 0.00, 0.00, 0.00, 0.00, 0.00, 0.00, 0.000, 0.000, 0.000, 21:23:18.834, 1541902998834
26, 40308.17, 15851.34, 0.00, 0.00, 0.00, 0.00, 0.00, 0.00, 0.000, 0.000, 0.000, 21:23:18.834, 1541902998834
27, 40212.75, 15751.50, 0.00, 0.00, 0.00, 0.00, 0.00, 0.00, 0.000, 0.000, 0.000, 21:23:18.834, 1541902998834
28, 40295.46, 15853.00, 0.00, 0.00, 0.00, 0.00, 0.00, 0.00, 0.000, 0.000, 0.000, 21:23:18.834, 1541902998834
29, 40456.86, 16022.65, 0.00, 0.00, 0.00, 0.00, 0.00, 0.00, 0.000, 0.000, 0.000, 21:23:18.834, 1541902998834
30, 40333.03, 15903.02, 0.00, 0.00, 0.00, 0.00, 0.00, 0.00, 0.000, 0.000, 0.000, 21:23:18.835, 1541902998835
31, 40200.66, 15752.35, 0.00, 0.00, 0.00, 0.00, 0.00, 0.00, 0.300, 0.658, 0.612, 21:23:18.835, 1541902998835
32, 40259.22, 15793.36, 0.00, 0.00, 0.00, 0.00, 0.00, 0.00, 0.000, 0.000, 0.000, 21:23:18.835, 1541902998835
33, 40435.29, 15965.34, 0.00, 0.00, 0.00, 0.00, 0.00, 0.00, 0.000, 0.000, 0.000, 21:23:18.835, 1541902998835
34, 40388.46, 15931.18, 0.00, 0.00, 0.00, 0.00, 0.00, 0.00, 0.000, 0.000, 0.000, 21:23:18.835, 1541902998835
35, 40223.21, 15774.50, 0.00, 0.00, 0.00, 0.00, 0.00, 0.00, 0.000, 0.000, 0.000, 21:23:18.835, 1541902998835
36, 40244.40, 15792.98, 0.00, 0.00, 0.00, 0.00, 0.00, 0.00, 0.000, 0.000, 0.000, 21:23:18.835, 1541902998835
37, 40423.78, 15959.66, 0.00, 0.00, 0.00, 0.00, 0.00, 0.00, 0.000, 0.000, 0.000, 21:23:18.836, 1541902998836
38, 40442.33, 15984.42, 0.00, 0.00, 0.00, 0.00, 0.00, 0.00, 0.000, 0.000, 0.000, 21:23:18.836, 1541902998836
39, 40272.95, 15824.90, 0.00, 0.00, 0.00, 0.00, 0.00, 0.00, 0.000, 0.000, 0.000, 21:23:18.837, 1541902998837
40, 40253.46, 15809.37, 0.00, 0.00, 0.00, 0.00, 0.00, 0.00, 0.000, 0.000, 0.000, 21:23:18.837, 1541902998837
