%OpenBCI Raw EEG Data
%Number of channels = 8
%Sample Rate = 250.0 Hz
%First Column = SampleIndex
%Last Column = Timestamp 
%Other Columns = EEG data in microvolts followed by Accel Data (in G) interleaved with Aux Data
0, -91664.84, -53702.72, -171929.45, -171014.55, -171077.03, -69619.38, -171614.52, -161939.41, 0.022, -0.042, 0.496, 20:48:16.871, 1541900896871
1, -91736.18, -53749.51, -171904.22, -171149.16, -171134.20, -69668.10, -171612.38, -162045.41, 0.000, 0.000, 0.000, 20:48:16.873, 1541900896873
2, -91820.90, -53817.50, -171876.11, -171368.50, -171218.94, -69748.57, -171613.98, -162184.72, 0.000, 0.000, 0.000, 20:48:16.873, 1541900896873
3, -91916.70, -53902.59, -171867.50, -171610.14, -171328.38, -69853.67, -171606.27, -162354.61, 0.000, 0.000, 0.000, 20:48:16.874, 1541900896874
4, -91990.81, -53949.87, -171889.33, -171807.92, -171380.92, -69897.41, -171583.16, -162452.56, 0.000, 0.000, 0.000, 20:48:16.874, 1541900896874
5, -92066.41, -53999.04, -171852.59, -172211.94, -171459.59, -69945.80, -171571.78, -162553.17, 0.000, 0.000, 0.000, 20:48:16.874, 1541900896874
6, -92179.58, -54095.22, -171808.48, -172451.55, -171731.38, -70060.31, -171569.33, -162719.42, 0.000, 0.000, 0.000, 20:48:16.874, 1541900896874
7, -92320.44, -54226.70, -171793.80, -172398.39, -171814.77, -70230.25, -171563.95, -162932.66, 0.032, -0.066, 0.746, 20:48:16.875, 1541900896875
8, -92440.13, -54324.77, -171829.13, -172292.02, -171707.75, -70352.98, -171563.36, -163089.31, 0.000, 0.000, 0.000, 20:48:16.875, 1541900896875
9, -92549.49, -54405.71, -171794.11, -172165.73, -171579.30, -70452.77, -171547.73, -163220.55, 0.000, 0.000, 0.000, 20:48:16.875, 1541900896875
10, -92677.73, -54517.51, -171772.38, -172077.41, -171491.94, -70596.93, -171537.97, -163402.94, 0.000, 0.000, 0.000, 20:48:16.875, 1541900896875
11, -92820.06, -54650.95, -171757.77, -172014.39, -171431.53, -70770.02, -171529.53, -163615.53, 0.000, 0.000, 0.000, 20:48:16.876, 1541900896876
12, -92949.01, -54761.75, -171793.13, -171924.16, -171342.36, -70912.45, -171535.55, -163792.06, 0.000, 0.000, 0.000, 20:48:16.876, 1541900896876
13, -93057.10, -54839.96, -171779.34, -171793.69, -171199.52, -71007.60, -171523.28, -163913.94, 0.000, 0.000, 0.000, 20:48:16.876, 1541900896876
14, -93180.51, -54943.38, -171759.98, -171697.80, -170956.84, -71137.04, -171515.70, -164083.69, 0.000, 0.000, 0.000, 20:48:16.877, 1541900896877
15, -93307.60, -55057.84, -171743.58, -171617.73, -170883.23, -71269.79, -171508.81, -164274.09, 0.000, 0.000, 0.000, 20:48:16.877, 1541900896877
16, -93423.43, -55158.85, -171775.47, -171523.95, -170996.81, -71382.33, -171510.50, -164446.06, 0.000, 0.000, 0.000, 20:48:16.878, 1541900896878
17, -93514.84, -55218.35, -171756.31, -171332.80, -171058.50, -71432.75, -171492.39, -164547.64, 0.036, -0.076, 0.874, 20:48:16.878, 1541900896878
18, -93612.50, -55294.53, -171756.05, -170964.39, -171146.34, -71514.16, -171487.72, -164686.22, 0.000, 0.000, 0.000, 20:48:16.879, 1541900896879
19, -93704.50, -55374.10, -171744.05, -170999.31, -171242.63, -71606.13, -171480.97, -164838.30, 0.000, 0.000, 0.000, 20:48:16.879, 1541900896879
20, -93796.14, -55454.90, -171753.84, -171232.70, -171344.59, -71702.63, -171474.36, -164995.23, 0.000, 0.000, 0.000, 20:48:16.879, 1541900896879
21, -93861.70, -55491.49, -171757.97, -171402.89, -171451.78, -71733.59, -171445.30, -165071.81, 0.000, 0.000, 0.000, 20:48:16.879, 1541900896879
22, -93943.95, -55550.72, -171716.56, -171615.17, -171658.34, -71813.05, -171444.83, -165190.05, 0.000, 0.000, 0.000, 20:48:16.879, 1541900896879
23, -94050.02, -55640.89, -171686.56, -172068.03, -171611.53, -71941.81, -171440.80, -165353.59, 0.000, 0.000, 0.000, 20:48:16.879, 1541900896879
24, -94182.13, -55761.25, -171680.59, -172354.66, -171541.14, -72106.84, -171438.81, -165557.00, 0.000, 0.000, 0.000, 20:48:16.879, 1541900896879
25, -94291.95, -55844.20, -171699.77, -172243.70, -171414.05, -72209.63, -171430.98, -165685.78, 0.000, 0.000, 0.000, 20:48:16.880, 1541900896880
26, -94408.76, -55936.38, -171657.88, -172131.72, -171302.91, -72327.83, -171417.00, -165834.88, 0.000, 0.000, 0.000, 20:48:16.880, 1541900896880
27, -94542.66, -56053.41, -171638.45, -172051.00, -171223.47, -72480.00, -171405.33, -166022.63, 0.038, -0.080, 0.936, 20:48:16.880, 1541900896880
28, -94686.37, -56188.62, -171640.77, -171991.64, -171165.56, -72656.87, -171407.13, -166236.47, 0.000, 0.000, 0.000, 20:48:16.899, 1541900896899
29, -94800.30, -56280.26, -171675.52, -171877.88, -170946.72, -72768.02, -171405.11, -166378.02, 0.000, 0.000, 0.000, 20:48:16.900, 1541900896900
30, -94902.69, -56355.63, -171651.13, -171748.66, -170727.25, -72848.78, -171394.17, -166502.03, 0.000, 0.000, 0.000, 20:48:16.900, 1541900896900
31, -95016.28, -56452.88, -171634.75, -171649.59, -170812.61, -72953.66, -171388.13, -166666.30, 0.000, 0.000, 0.000, 20:48:16.900, 1541900896900
32, -95139.91, -56568.46, -171624.94, -171573.23, -170949.56, -73083.18, -171383.11, -166860.77, 0.000, 0.000, 0.000, 20:48:16.900, 1541900896900
33, -95248.42, -56654.54, -171654.03, -171459.58, -171044.19, -73169.70, -171379.47, -167003.83, 0.000, 0.000, 0.000, 20:48:16.900, 1541900896900
34, -95344.96, -56721.17, -171612.89, -171321.44, -171111.84, -73228.25, -171359.91, -167114.23, 0.000, 0.000, 0.000, 20:48:16.900, 1541900896900
35, -95456.67, -56814.98, -171600.33, -171113.53, -171254.95, -73329.34, -171354.86, -167274.02, 0.000, 0.000, 0.000, 20:48:16.900, 1541900896900
36, -95570.47, -56917.73, -171605.09, -170826.94, -171540.36, -73458.78, -171349.58, -167453.41, 0.000, 0.000, 0.000, 20:48:16.901, 1541900896901
37, -95667.50, -56998.00, -171632.31, -170971.84, -171532.00, -73571.59, -171343.48, -167599.39, 0.036, -0.082, 0.968, 20:48:16.901, 1541900896901
38, -95743.94, -57047.06, -171621.25, -171152.80, -171371.25, -73637.30, -171324.03, -167688.02, 0.000, 0.000, 0.000, 20:48:16.901, 1541900896901
39, -95834.84, -57122.23, -171594.73, -171371.09, -171249.47, -73744.82, -171326.41, -167824.16, 0.000, 0.000, 0.000, 20:48:16.901, 1541900896901
40, -95940.37, -57216.93, -171561.95, -171749.03, -171153.50, -73879.20, -171316.86, -167993.38, 0.000, 0.000, 0.000, 20:48:16.901, 1541900896901
41, -96060.89, -57326.01, -171569.17, -172173.30, -171065.42, -74024.84, -171314.77, -168175.39, 0.000, 0.000, 0.000, 20:48:16.901, 1541900896901
42, -96164.73, -57401.13, -171563.36, -172100.05, -170815.56, -74112.95, -171302.52, -168290.50, 0.000, 0.000, 0.000, 20:48:16.902, 1541900896902
43, -96276.67, -57491.52, -171540.45, -171991.45, -170641.95, -74218.38, -171293.89, -168444.97, 0.000, 0.000, 0.000, 20:48:16.902, 1541900896902
44, -96398.13, -57598.10, -171519.39, -171904.63, -170749.97, -74339.33, -171283.48, -168624.69, 0.000, 0.000, 0.000, 20:48:16.902, 1541900896902
45, -96521.65, -57711.02, -171538.28, -171825.47, -170883.50, -74466.38, -171283.78, -168812.58, 0.000, 0.000, 0.000, 20:48:16.902, 1541900896902
46, -96614.67, -57774.83, -171547.53, -171683.77, -170948.50, -74521.97, -171270.69, -168915.56, 0.000, 0.000, 0.000, 20:48:16.902, 1541900896902
47, -96718.19, -57853.15, -171513.11, -171564.36, -171039.14, -74605.13, -171262.44, -169050.42, 0.040, -0.086, 0.982, 20:48:16.902, 1541900896902
48, -96836.16, -57955.30, -171491.98, -171472.19, -171237.02, -74719.82, -171254.13, -169218.28, 0.000, 0.000, 0.000, 20:48:16.903, 1541900896903
49, -96973.27, -58080.78, -171490.88, -171404.39, -171502.98, -74877.83, -171251.14, -169420.66, 0.000, 0.000, 0.000, 20:48:16.903, 1541900896903
50, -97086.16, -58165.96, -171513.52, -171283.56, -171422.66, -74982.66, -171244.73, -169549.31, 0.000, 0.000, 0.000, 20:48:16.903, 1541900896903
51, -97202.37, -58255.86, -171471.25, -171170.97, -171308.59, -75098.82, -171230.98, -169689.45, 0.000, 0.000, 0.000, 20:48:16.903, 1541900896903
52, -97336.37, -58371.94, -171450.34, -171077.03, -171228.80, -75251.02, -171226.81, -169872.48, 0.000, 0.000, 0.000, 20:48:16.903, 1541900896903
53, -97472.73, -58497.80, -171467.11, -170791.22, -171164.88, -75421.31, -171224.84, -170074.80, 0.000, 0.000, 0.000, 20:48:16.903, 1541900896903
54, -97566.05, -58565.66, -171514.67, -170658.63, -171031.16, -75516.73, -171209.23, -170194.06, 0.000, 0.000, 0.000, 20:48:16.904, 1541900896904
55, -97644.13, -58616.57, -171488.92, -170837.28, -170847.81, -75592.44, -171200.44, -170290.53, 0.000, 0.000, 0.000, 20:48:16.904, 1541900896904
56, -97731.97, -58688.21, -171465.56, -171058.47, -170563.23, -75689.28, -171196.86, -170426.06, 0.000, 0.000, 0.000, 20:48:16.905, 1541900896905
57, -97827.23, -58771.56, -171448.69, -171298.36, -170556.19, -75793.84, -171188.70, -170588.64, 0.000, 0.000, 0.000, 20:48:16.905, 1541900896905
58, -97908.30, -58830.50, -171466.97, -171585.86, -170630.73, -75859.05, -171173.66, -170707.36, 0.038, -0.080, 0.994, 20:48:16.905, 1541900896905
59, -97988.41, -58879.99, -171436.95, -171998.77, -170685.42, -75903.28, -171155.27, -170798.75, 0.000, 0.000, 0.000, 20:48:16.905, 1541900896905
60, -98098.83, -58972.26, -171403.61, -172010.06, -170794.80, -76004.18, -171155.84, -170953.20, 0.000, 0.000, 0.000, 20:48:16.905, 1541900896905
61, -98225.52, -59085.92, -171383.84, -171932.61, -170939.25, -76135.96, -171151.19, -171154.55, 0.000, 0.000, 0.000, 20:48:16.906, 1541900896906
62, -98362.83, -59204.88, -171399.23, -171854.69, -171207.86, -76268.06, -171156.72, -171265.19, 0.000, 0.000, 0.000, 20:48:16.906, 1541900896906
63, -98500.02, -59310.22, -171372.19, -171750.11, -171351.48, -76383.82, -171137.98, -171162.56, 0.000, 0.000, 0.000, 20:48:16.906, 1541900896906
64, -98658.95, -59449.89, -171351.95, -171685.31, -171300.17, -76554.88, -171122.64, -171087.91, 0.000, 0.000, 0.000, 20:48:16.906, 1541900896906
65, -98819.00, -59597.10, -171346.66, -171633.66, -171249.38, -76740.84, -171122.92, -171053.92, 0.000, 0.000, 0.000, 20:48:16.906, 1541900896906
66, -98963.35, -59730.72, -171371.33, -171569.92, -171187.27, -76912.82, -171131.30, -171203.50, 0.000, 0.000, 0.000, 20:48:16.906, 1541900896906
67, -99098.73, -59835.35, -171361.66, -171463.48, -171079.28, -77034.79, -171120.77, -171181.59, 0.000, 0.000, 0.000, 20:48:16.906, 1541900896906
68, -99259.45, -59970.93, -171330.09, -171395.55, -171013.42, -77202.30, -171104.19, -171112.52, 0.042, -0.084, 0.996, 20:48:16.907, 1541900896907
69, -99431.87, -60125.97, -171322.06, -171351.69, -170971.38, -77394.61, -171100.52, -171067.64, 0.000, 0.000, 0.000, 20:48:16.907, 1541900896907
70, -99601.76, -60284.48, -171343.45, -171314.88, -170936.13, -77594.37, -171109.69, -171016.47, 0.000, 0.000, 0.000, 20:48:16.907, 1541900896907
71, -99720.31, -60375.50, -171371.25, -171197.64, -170815.72, -77702.40, -171109.92, -170979.22, 0.000, 0.000, 0.000, 20:48:16.907, 1541900896907
72, -99839.14, -60471.82, -171329.05, -171092.63, -170606.75, -77822.31, -171092.70, -171132.64, 0.000, 0.000, 0.000, 20:48:16.907, 1541900896907
73, -99984.73, -60601.03, -171305.70, -171025.48, -170453.14, -77970.34, -171087.05, -171215.94, 0.000, 0.000, 0.000, 20:48:16.907, 1541900896907
74, -100146.90, -60750.27, -171307.55, -170953.36, -170598.80, -78136.91, -171089.83, -171182.95, 0.000, 0.000, 0.000, 20:48:16.908, 1541900896908
75, -100267.11, -60842.72, -171366.17, -170597.31, -170698.45, -78226.43, -171090.11, -171041.52, 0.000, 0.000, 0.000, 20:48:16.908, 1541900896908
76, -100352.78, -60901.37, -171360.45, -170540.55, -170767.97, -78287.12, -171078.13, -170965.61, 0.000, 0.000, 0.000, 20:48:16.908, 1541900896908
77, -100440.31, -60970.55, -171328.94, -170759.97, -170860.58, -78367.67, -171067.38, -171098.27, 0.000, 0.000, 0.000, 20:48:16.908, 1541900896908
78, -100558.13, -61077.86, -171301.33, -171026.58, -171122.98, -78497.45, -171059.38, -171209.94, 0.040, -0.084, 0.992, 20:48:16.908, 1541900896908
79, -100673.80, -61171.78, -171325.98, -171294.88, -171263.47, -78611.46, -171054.30, -171110.52, 0.000, 0.000, 0.000, 20:48:16.908, 1541900896908
80, -100792.80, -61264.63, -171282.91, -171768.17, -171158.95, -78724.85, -171034.25, -170974.98, 0.000, 0.000, 0.000, 20:48:16.908, 1541900896908
81, -100936.63, -61391.66, -171266.28, -171936.58, -171086.69, -78886.34, -171029.91, -170927.16, 0.000, 0.000, 0.000, 20:48:16.909, 1541900896909
82, -101086.16, -61530.59, -171250.55, -171881.78, -171032.92, -79066.63, -171028.19, -171107.27, 0.000, 0.000, 0.000, 20:48:16.909, 1541900896909
83, -101237.24, -61662.85, -171273.80, -171810.45, -170962.50, -79228.91, -171035.31, -171164.64, 0.000, 0.000, 0.000, 20:48:16.909, 1541900896909
84, -101380.22, -61777.74, -171248.47, -171712.88, -170863.86, -79360.83, -171019.61, -171058.39, 0.000, 0.000, 0.000, 20:48:16.909, 1541900896909
85, -101543.55, -61921.75, -171225.69, -171653.41, -170807.27, -79539.33, -171004.92, -170998.94, 0.000, 0.000, 0.000, 20:48:16.912, 1541900896912
86, -101718.56, -62085.16, -171219.44, -171618.16, -170773.88, -79742.77, -170998.97, -170962.77, 0.000, 0.000, 0.000, 20:48:16.912, 1541900896912
87, -101875.38, -62227.34, -171266.23, -171560.52, -170687.02, -79918.59, -171012.98, -170892.31, 0.000, 0.000, 0.000, 20:48:16.915, 1541900896915
88, -101977.95, -62302.40, -171273.41, -171426.81, -170386.92, -80000.06, -171006.31, -170898.61, 0.042, -0.086, 0.992, 20:48:16.915, 1541900896915
89, -102092.35, -62399.43, -171237.06, -171322.78, -170369.80, -80102.73, -170995.33, -171066.33, 0.000, 0.000, 0.000, 20:48:16.916, 1541900896916
90, -102238.41, -62532.40, -171206.25, -171260.16, -170521.72, -80246.18, -170992.69, -171142.00, 0.000, 0.000, 0.000, 20:48:16.916, 1541900896916
91, -102392.02, -62673.42, -171230.09, -171205.64, -170684.00, -80399.16, -170995.89, -171094.47, 0.000, 0.000, 0.000, 20:48:16.916, 1541900896916
92, -102518.46, -62771.39, -171231.20, -171091.94, -170788.75, -80485.16, -170980.61, -170963.84, 0.000, 0.000, 0.000, 20:48:16.916, 1541900896916
93, -102655.21, -62886.45, -171209.48, -171004.31, -171054.91, -80607.12, -170968.16, -170861.28, 0.000, 0.000, 0.000, 20:48:16.916, 1541900896916
94, -102794.28, -63010.66, -171190.50, -170932.52, -171213.63, -80762.66, -170968.13, -170952.75, 0.000, 0.000, 0.000, 20:48:16.916, 1541900896916
95, -102953.38, -63157.67, -171187.84, -170874.45, -171177.66, -80952.45, -170965.97, -171118.92, 0.000, 0.000, 0.000, 20:48:16.916, 1541900896916
96, -103086.87, -63263.08, -171220.45, -170559.50, -171071.84, -81078.13, -170964.73, -171029.17, 0.000, 0.000, 0.000, 20:48:16.917, 1541900896917
97, -103210.12, -63362.63, -171202.72, -170446.70, -170968.23, -81206.88, -170947.70, -170911.67, 0.000, 0.000, 0.000, 20:48:16.917, 1541900896917
98, -103330.52, -63468.18, -171204.66, -170688.64, -170878.09, -81348.63, -170947.86, -170836.36, 0.042, -0.084, 1.000, 20:48:16.917, 1541900896917
99, -103445.93, -63575.94, -171197.50, -170952.39, -170797.97, -81499.09, -170947.13, -170982.06, 0.000, 0.000, 0.000, 20:48:16.917, 1541900896917
100, -103549.62, -63656.85, -171218.72, -171212.86, -170673.59, -81602.91, -170943.77, -171020.98, 0.000, 0.000, 0.000, 20:48:16.917, 1541900896917
101, -103675.19, -63756.11, -171163.89, -171697.28, -170523.38, -81725.26, -170921.53, -170918.44, 0.000, 0.000, 0.000, 20:48:16.917, 1541900896917
102, -103826.22, -63889.20, -171150.59, -171841.38, -170301.94, -81879.17, -170916.66, -170835.20, 0.000, 0.000, 0.000, 20:48:16.918, 1541900896918
103, -103964.09, -64018.07, -171160.38, -171777.27, -170363.92, -82023.45, -170919.11, -170894.41, 0.000, 0.000, 0.000, 20:48:16.918, 1541900896918
104, -104079.95, -64112.96, -171179.11, -171670.69, -170470.41, -82117.20, -170921.08, -171013.89, 0.000, 0.000, 0.000, 20:48:16.918, 1541900896918
105, -104204.59, -64208.60, -171141.53, -171558.95, -170572.28, -82206.49, -170901.30, -170941.27, 0.000, 0.000, 0.000, 20:48:16.918, 1541900896918
106, -104352.98, -64338.06, -171118.72, -171488.92, -170742.42, -82343.87, -170888.33, -170870.98, 0.000, 0.000, 0.000, 20:48:16.918, 1541900896918
107, -104519.30, -64492.58, -171102.91, -171447.08, -171080.05, -82521.79, -170885.50, -170826.31, 0.000, 0.000, 0.000, 20:48:16.918, 1541900896918
108, -104667.18, -64623.70, -171150.00, -171376.66, -171154.98, -82682.32, -170895.05, -170760.11, 0.044, -0.084, 1.000, 20:48:16.918, 1541900896918
109, -104776.99, -64707.40, -171136.81, -171251.45, -171027.34, -82781.27, -170883.58, -170824.25, 0.000, 0.000, 0.000, 20:48:16.919, 1541900896919
110, -104916.94, -64827.90, -171102.94, -171171.58, -170949.08, -82934.42, -170873.00, -170990.97, 0.000, 0.000, 0.000, 20:48:16.919, 1541900896919
111, -105087.26, -64983.22, -171086.27, -171130.73, -170911.06, -83128.48, -170875.89, -171007.84, 0.000, 0.000, 0.000, 20:48:16.919, 1541900896919
112, -105254.07, -65134.81, -171109.19, -171082.53, -170864.42, -83313.48, -170876.06, -170959.25, 0.000, 0.000, 0.000, 20:48:16.919, 1541900896919
113, -105394.77, -65245.66, -171104.98, -170980.69, -170759.95, -83438.59, -170861.02, -170842.38, 0.000, 0.000, 0.000, 20:48:16.919, 1541900896919
114, -105548.27, -65379.01, -171087.23, -170910.97, -170690.92, -83601.78, -170852.28, -170754.92, 0.000, 0.000, 0.000, 20:48:16.919, 1541900896919
115, -105694.78, -65511.62, -171080.30, -170848.66, -170630.08, -83770.94, -170852.50, -170821.80, 0.000, 0.000, 0.000, 20:48:16.919, 1541900896919
116, -105852.02, -65655.84, -171083.53, -170795.11, -170577.91, -83953.24, -170855.98, -170990.19, 0.000, 0.000, 0.000, 20:48:16.946, 1541900896946
117, -105987.54, -65761.16, -171100.56, -170530.92, -170349.55, -84069.87, -170852.45, -170904.78, 0.000, 0.000, 0.000, 20:48:16.947, 1541900896947
118, -106107.15, -65857.55, -171104.14, -170304.08, -170189.02, -84175.70, -170841.31, -170782.41, 0.040, -0.076, 1.000, 20:48:16.947, 1541900896947
119, -106209.80, -65945.29, -171098.95, -170502.47, -170278.41, -84272.38, -170836.81, -170731.88, 0.000, 0.000, 0.000, 20:48:16.949, 1541900896949
120, -106310.64, -66036.13, -171097.69, -170747.47, -170391.03, -84377.09, -170830.38, -170886.88, 0.000, 0.000, 0.000, 20:48:17.349, 1541900897349
121, -106399.84, -66098.17, -171110.44, -170951.50, -170456.67, -84432.66, -170817.45, -170856.45, 0.000, 0.000, 0.000, 20:48:17.350, 1541900897350
122, -106501.90, -66174.88, -171066.36, -171353.77, -170545.81, -84511.32, -170806.38, -170712.97, 0.000, 0.000, 0.000, 20:48:17.350, 1541900897350
123, -106621.86, -66275.31, -171044.19, -171684.64, -170715.53, -84622.96, -170801.97, -170734.23, 0.000, 0.000, 0.000, 20:48:17.350, 1541900897350
124, -106772.38, -66414.49, -171021.02, -171657.80, -171031.56, -84789.53, -170796.14, -170928.67, 0.000, 0.000, 0.000, 20:48:17.350, 1541900897350
125, -106918.11, -66535.73, -171045.95, -171571.34, -171026.28, -84932.91, -170801.52, -170893.25, 0.000, 0.000, 0.000, 20:48:17.350, 1541900897350
126, -107066.33, -66656.41, -171005.69, -171482.22, -170936.09, -85075.03, -170780.59, -170795.78, 0.000, 0.000, 0.000, 20:48:17.350, 1541900897350
127, -107231.46, -66803.15, -170995.88, -171427.80, -170883.08, -85255.92, -170771.72, -170741.30, 0.000, 0.000, 0.000, 20:48:17.351, 1541900897351
128, -107404.80, -66965.53, -170993.77, -171395.88, -170852.44, -85460.82, -170774.63, -170706.23, 0.000, 0.000, 0.000, 20:48:17.351, 1541900897351
129, -107547.74, -67086.99, -171044.59, -171314.42, -170770.16, -85609.03, -170780.83, -170629.77, 0.038, -0.076, 1.006, 20:48:17.351, 1541900897351
130, -107659.41, -67172.33, -171020.25, -171191.25, -170645.08, -85708.59, -170769.27, -170701.31, 0.000, 0.000, 0.000, 20:48:17.351, 1541900897351
131, -107798.75, -67295.27, -170985.78, -171113.66, -170569.31, -85861.50, -170757.53, -170881.45, 0.000, 0.000, 0.000, 20:48:17.352, 1541900897352
132, -107970.86, -67456.96, -170968.28, -171077.05, -170536.11, -86062.02, -170754.72, -170920.44, 0.000, 0.000, 0.000, 20:48:17.352, 1541900897352
133, -108132.44, -67602.16, -171002.11, -171020.59, -170480.42, -86238.55, -170765.22, -170861.83, 0.000, 0.000, 0.000, 20:48:17.352, 1541900897352
134, -108270.70, -67711.75, -170990.30, -170918.94, -170297.98, -86361.28, -170752.38, -170745.66, 0.000, 0.000, 0.000, 20:48:17.352, 1541900897352
135, -108415.75, -67839.15, -170980.88, -170845.53, -170107.72, -86503.20, -170743.09, -170654.02, 0.000, 0.000, 0.000, 20:48:17.352, 1541900897352
136, -108546.77, -67958.11, -170976.63, -170773.33, -170205.31, -86635.74, -170739.42, -170703.16, 0.000, 0.000, 0.000, 20:48:17.352, 1541900897352
137, -108681.64, -68078.98, -170980.20, -170699.86, -170346.86, -86766.90, -170742.20, -170845.73, 0.000, 0.000, 0.000, 20:48:17.353, 1541900897353
138, -108803.70, -68171.41, -170977.27, -170485.44, -170441.59, -86846.00, -170731.53, -170746.22, 0.000, 0.000, 0.000, 20:48:17.353, 1541900897353
139, -108922.70, -68269.35, -170984.73, -170177.81, -170563.66, -86948.10, -170719.25, -170625.48, 0.038, -0.078, 1.004, 20:48:17.353, 1541900897353
140, -109027.56, -68357.84, -170977.83, -170325.98, -170813.97, -87054.45, -170717.97, -170637.50, 0.000, 0.000, 0.000, 20:48:17.353, 1541900897353
141, -109143.45, -68461.71, -170973.94, -170586.78, -170956.11, -87194.47, -170714.84, -170801.50, 0.000, 0.000, 0.000, 20:48:17.353, 1541900897353
142, -109250.27, -68539.32, -170972.42, -170810.03, -170831.89, -87291.09, -170702.14, -170727.42, 0.000, 0.000, 0.000, 20:48:17.353, 1541900897353
143, -109373.05, -68639.23, -170937.39, -171238.41, -170728.91, -87421.13, -170687.80, -170604.27, 0.000, 0.000, 0.000, 20:48:17.353, 1541900897353
144, -109508.48, -68759.04, -170913.88, -171586.84, -170653.33, -87577.87, -170683.75, -170619.55, 0.000, 0.000, 0.000, 20:48:17.354, 1541900897354
145, -109661.84, -68902.60, -170909.14, -171563.45, -170605.78, -87763.05, -170686.19, -170807.88, 0.000, 0.000, 0.000, 20:48:17.354, 1541900897354
146, -109803.66, -69018.05, -170927.38, -171469.39, -170511.70, -87897.70, -170685.17, -170758.97, 0.000, 0.000, 0.000, 20:48:17.354, 1541900897354
147, -109954.24, -69142.73, -170888.98, -171387.09, -170430.17, -88044.62, -170663.98, -170670.41, 0.000, 0.000, 0.000, 20:48:17.354, 1541900897354
148, -110123.40, -69294.01, -170874.94, -171336.33, -170383.81, -88230.29, -170653.58, -170621.56, 0.000, 0.000, 0.000, 20:48:17.354, 1541900897354
149, -110297.38, -69456.28, -170888.11, -171304.91, -170348.94, -88436.77, -170659.72, -170581.73, 0.036, -0.082, 0.994, 20:48:17.354, 1541900897354
150, -110423.54, -69557.64, -170941.06, -171204.95, -170104.06, -88557.14, -170667.72, -170539.20, 0.000, 0.000, 0.000, 20:48:17.354, 1541900897354
151, -110524.84, -69631.85, -170901.86, -171076.98, -169967.73, -88630.01, -170651.81, -170653.53, 0.000, 0.000, 0.000, 20:48:17.355, 1541900897355
152, -110655.57, -69745.94, -170875.39, -170994.19, -170093.59, -88749.59, -170643.31, -170768.81, 0.000, 0.000, 0.000, 20:48:17.355, 1541900897355
153, -110812.50, -69893.59, -170863.64, -170948.44, -170265.88, -88912.20, -170642.64, -170748.75, 0.000, 0.000, 0.000, 20:48:17.359, 1541900897359
154, -110951.95, -70013.64, -170895.00, -170869.05, -170400.80, -89033.52, -170646.22, -170658.00, 0.000, 0.000, 0.000, 20:48:17.359, 1541900897359
155, -111069.77, -70101.57, -170878.25, -170750.61, -170532.31, -89112.06, -170630.23, -170525.47, 0.000, 0.000, 0.000, 20:48:17.361, 1541900897361
156, -111196.80, -70210.65, -170861.69, -170661.64, -170815.75, -89236.79, -170621.05, -170629.66, 0.000, 0.000, 0.000, 20:48:17.361, 1541900897361
157, -111354.84, -70358.51, -170829.70, -170612.25, -170866.83, -89421.26, -170618.84, -170788.22, 0.000, 0.000, 0.000, 20:48:17.362, 1541900897362
158, -111516.00, -70505.42, -170855.77, -170557.42, -170812.45, -89600.97, -170627.05, -170756.97, 0.000, 0.000, 0.000, 20:48:17.362, 1541900897362
159, -111653.28, -70612.17, -170845.23, -170332.94, -170706.80, -89722.76, -170613.86, -170640.23, 0.040, -0.084, 1.000, 20:48:17.362, 1541900897362
160, -111788.63, -70726.91, -170853.58, -170075.95, -170624.14, -89870.82, -170602.30, -170542.73, 0.000, 0.000, 0.000, 20:48:17.362, 1541900897362
161, -111908.63, -70834.30, -170855.92, -170270.91, -170540.94, -90018.23, -170601.30, -170510.77, 0.000, 0.000, 0.000, 20:48:17.362, 1541900897362
162, -112018.02, -70930.73, -170875.38, -170521.83, -170446.80, -90153.91, -170603.95, -170663.70, 0.000, 0.000, 0.000, 20:48:17.363, 1541900897363
163, -112118.45, -71002.03, -170854.81, -170740.56, -170308.33, -90241.50, -170590.59, -170632.73, 0.000, 0.000, 0.000, 20:48:17.363, 1541900897363
164, -112248.98, -71110.33, -170816.77, -171208.83, -170178.78, -90379.81, -170573.11, -170534.42, 0.000, 0.000, 0.000, 20:48:17.363, 1541900897363
165, -112392.88, -71238.45, -170806.58, -171499.70, -169955.42, -90532.41, -170572.48, -170480.48, 0.000, 0.000, 0.000, 20:48:17.363, 1541900897363
166, -112525.43, -71360.36, -170817.30, -171442.30, -170003.19, -90669.45, -170577.33, -170631.02, 0.000, 0.000, 0.000, 20:48:17.363, 1541900897363
167, -112641.88, -71449.52, -170824.77, -171323.72, -170097.31, -90747.43, -170571.94, -170626.13, 0.000, 0.000, 0.000, 20:48:17.363, 1541900897363
168, -112776.05, -71561.70, -170781.11, -171232.78, -170221.88, -90855.99, -170547.52, -170530.03, 0.000, 0.000, 0.000, 20:48:17.363, 1541900897363
169, -112916.63, -71688.66, -170776.94, -171162.66, -170393.73, -90989.84, -170545.50, -170454.00, 0.042, -0.082, 0.998, 20:48:17.364, 1541900897364
170, -113055.21, -71817.78, -170784.05, -171100.08, -170709.30, -91143.68, -170548.19, -170584.02, 0.000, 0.000, 0.000, 20:48:17.364, 1541900897364
171, -113186.68, -71924.42, -170793.00, -171000.19, -170742.16, -91266.66, -170549.22, -170646.23, 0.000, 0.000, 0.000, 20:48:17.364, 1541900897364
172, -113335.05, -72047.72, -170751.27, -170915.95, -170660.13, -91411.61, -170529.64, -170568.70, 0.000, 0.000, 0.000, 20:48:17.364, 1541900897364
173, -113501.13, -72194.86, -170740.50, -170864.91, -170611.11, -91592.55, -170522.23, -170518.03, 0.000, 0.000, 0.000, 20:48:17.364, 1541900897364
174, -113677.13, -72359.99, -170737.86, -170836.75, -170584.58, -91800.53, -170523.13, -170490.41, 0.000, 0.000, 0.000, 20:48:17.364, 1541900897364
175, -113819.68, -72482.32, -170787.81, -170754.17, -170500.11, -91944.91, -170524.52, -170392.77, 0.000, 0.000, 0.000, 20:48:17.364, 1541900897364
176, -113932.41, -72569.32, -170765.69, -170636.20, -170379.42, -92048.98, -170517.36, -170433.81, 0.000, 0.000, 0.000, 20:48:17.364, 1541900897364
177, -114069.76, -72688.95, -170738.31, -170559.08, -170303.72, -92201.77, -170510.20, -170618.48, 0.000, 0.000, 0.000, 20:48:17.365, 1541900897365
178, -114242.38, -72848.55, -170713.03, -170523.98, -170272.03, -92403.52, -170505.41, -170670.09, 0.000, 0.000, 0.000, 20:48:17.365, 1541900897365
179, -114403.06, -72988.32, -170746.42, -170461.86, -170198.16, -92574.58, -170513.05, -170604.69, 0.042, -0.086, 1.004, 20:48:17.365, 1541900897365
180, -114541.38, -73096.88, -170726.08, -170305.28, -169945.72, -92696.13, -170496.47, -170490.09, 0.000, 0.000, 0.000, 20:48:17.365, 1541900897365
181, -114668.45, -73204.17, -170755.83, -169973.77, -169876.92, -92816.87, -170494.61, -170387.67, 0.000, 0.000, 0.000, 20:48:17.365, 1541900897365
182, -114768.63, -73293.58, -170746.80, -170052.78, -169987.48, -92919.46, -170491.33, -170446.81, 0.000, 0.000, 0.000, 20:48:17.365, 1541900897365
183, -114866.04, -73375.73, -170759.88, -170289.20, -170091.83, -93010.75, -170484.70, -170571.67, 0.000, 0.000, 0.000, 20:48:17.366, 1541900897366
184, -114953.43, -73432.32, -170748.91, -170485.95, -170154.02, -93059.85, -170465.84, -170450.64, 0.000, 0.000, 0.000, 20:48:17.366, 1541900897366
185, -115051.84, -73510.46, -170724.92, -170776.63, -170254.63, -93146.17, -170460.91, -170330.88, 0.000, 0.000, 0.000, 20:48:17.366, 1541900897366
186, -115162.66, -73606.91, -170686.16, -171266.97, -170493.48, -93260.08, -170449.61, -170436.38, 0.000, 0.000, 0.000, 20:48:17.366, 1541900897366
187, -115311.44, -73741.84, -170682.77, -171360.14, -170705.55, -93427.36, -170450.95, -170592.08, 0.000, 0.000, 0.000, 20:48:17.368, 1541900897368
188, -115450.55, -73850.85, -170689.47, -171257.70, -170619.33, -93552.44, -170448.23, -170504.69, 0.000, 0.000, 0.000, 20:48:17.368, 1541900897368
189, -115604.98, -73983.65, -170650.06, -171187.73, -170550.31, -93714.70, -170429.83, -170431.70, 0.000, 0.000, 0.000, 20:48:17.368, 1541900897368
190, -115772.98, -74138.37, -170638.38, -171142.58, -170508.09, -93904.50, -170423.19, -170388.81, 0.040, -0.086, 0.996, 20:48:17.368, 1541900897368
191, -115941.87, -74301.27, -170662.47, -171108.50, -170476.28, -94105.96, -170429.66, -170343.63, 0.000, 0.000, 0.000, 20:48:17.369, 1541900897369
192, -116060.22, -74395.23, -170701.03, -170994.84, -170360.14, -94215.66, -170429.56, -170284.17, 0.000, 0.000, 0.000, 20:48:17.369, 1541900897369
193, -116177.52, -74489.73, -170656.22, -170888.88, -170254.45, -94335.58, -170415.44, -170429.14, 0.000, 0.000, 0.000, 20:48:17.369, 1541900897369
194, -116327.28, -74624.96, -170634.08, -170827.14, -170194.88, -94504.94, -170412.42, -170560.70, 0.000, 0.000, 0.000, 20:48:17.369, 1541900897369
195, -116500.95, -74789.76, -170625.44, -170797.20, -170168.34, -94710.40, -170415.59, -170555.58, 0.000, 0.000, 0.000, 20:48:17.369, 1541900897369
196, -116650.45, -74913.92, -170655.20, -170714.84, -170069.08, -94855.46, -170415.14, -170462.64, 0.000, 0.000, 0.000, 20:48:17.369, 1541900897369
197, -116794.39, -75029.04, -170629.44, -170624.14, -169822.61, -94985.45, -170396.33, -170357.61, 0.000, 0.000, 0.000, 20:48:17.370, 1541900897370
198, -116933.08, -75150.56, -170638.11, -170547.61, -169786.03, -95115.38, -170397.33, -170293.63, 0.000, 0.000, 0.000, 20:48:17.370, 1541900897370
199, -117065.83, -75274.62, -170631.28, -170480.91, -169932.31, -95252.42, -170397.53, -170448.11, 0.000, 0.000, 0.000, 20:48:17.373, 1541900897373
200, -117191.89, -75379.84, -170644.30, -170385.86, -170050.84, -95358.33, -170397.00, -170484.70, 0.036, -0.084, 0.992, 20:48:17.374, 1541900897374
201, -117317.10, -75477.34, -170606.97, -170274.02, -170160.88, -95448.85, -170377.78, -170370.53, 0.000, 0.000, 0.000, 20:48:17.374, 1541900897374
202, -117457.72, -75602.80, -170606.88, -170025.00, -170441.34, -95585.63, -170368.30, -170279.47, 0.000, 0.000, 0.000, 20:48:17.374, 1541900897374
203, -117581.98, -75718.59, -170621.47, -169855.45, -170595.75, -95734.89, -170370.22, -170324.00, 0.000, 0.000, 0.000, 20:48:17.374, 1541900897374
204, -117688.34, -75808.48, -170647.78, -170065.81, -170498.59, -95857.33, -170374.56, -170457.23, 0.000, 0.000, 0.000, 20:48:17.375, 1541900897375
205, -117791.86, -75882.70, -170612.33, -170282.22, -170365.75, -95951.74, -170355.88, -170372.86, 0.000, 0.000, 0.000, 20:48:17.375, 1541900897375
206, -117916.04, -75986.85, -170596.27, -170570.11, -170274.94, -96089.79, -170346.23, -170262.98, 0.000, 0.000, 0.000, 20:48:17.375, 1541900897375
207, -118043.27, -76101.38, -170581.02, -171082.73, -170200.19, -96244.75, -170342.33, -170294.98, 0.000, 0.000, 0.000, 20:48:17.375, 1541900897375
208, -118182.92, -76228.43, -170579.98, -171255.63, -170132.84, -96407.56, -170344.14, -170456.31, 0.000, 0.000, 0.000, 20:48:17.375, 1541900897375
209, -118318.13, -76334.83, -170570.42, -171153.09, -170027.30, -96527.91, -170334.08, -170384.80, 0.000, 0.000, 0.000, 20:48:17.376, 1541900897376
210, -118475.10, -76470.57, -170541.84, -171086.59, -169934.72, -96692.57, -170319.30, -170317.66, 0.042, -0.086, 0.994, 20:48:17.376, 1541900897376
211, -118640.02, -76621.46, -170533.33, -171039.41, -169728.95, -96867.56, -170314.09, -170270.91, 0.000, 0.000, 0.000, 20:48:17.376, 1541900897376
212, -118790.22, -76761.99, -170568.25, -170984.89, -169766.97, -97020.36, -170323.45, -170206.53, 0.000, 0.000, 0.000, 20:48:17.376, 1541900897376
213, -118887.90, -76833.02, -170588.59, -170850.05, -169841.94, -97079.32, -170313.84, -170197.70, 0.000, 0.000, 0.000, 20:48:17.376, 1541900897376
214, -118995.25, -76918.09, -170545.19, -170737.28, -169942.13, -97164.69, -170303.34, -170353.64, 0.000, 0.000, 0.000, 20:48:17.376, 1541900897376
215, -119136.05, -77041.30, -170518.75, -170666.53, -170111.64, -97296.88, -170298.63, -170442.95, 0.000, 0.000, 0.000, 20:48:17.376, 1541900897376
216, -119298.21, -77192.02, -170518.30, -170624.52, -170448.42, -97470.16, -170301.48, -170415.45, 0.000, 0.000, 0.000, 20:48:17.377, 1541900897377
217, -119441.03, -77308.16, -170532.61, -170531.44, -170498.11, -97599.49, -170292.09, -170310.27, 0.000, 0.000, 0.000, 20:48:17.377, 1541900897377
218, -119591.24, -77434.38, -170499.48, -170452.08, -170418.30, -97749.18, -170270.59, -170217.30, 0.000, 0.000, 0.000, 20:48:17.377, 1541900897377
219, -119742.52, -77570.32, -170509.14, -170390.19, -170357.28, -97918.32, -170278.95, -170168.56, 0.000, 0.000, 0.000, 20:48:17.377, 1541900897377
220, -119892.72, -77709.99, -170498.11, -170340.98, -170310.16, -98101.09, -170279.09, -170341.83, 0.040, -0.084, 0.994, 20:48:17.377, 1541900897377
221, -120034.01, -77824.91, -170524.56, -170252.78, -170220.36, -98239.60, -170281.31, -170371.11, 0.000, 0.000, 0.000, 20:48:17.377, 1541900897377
222, -120180.54, -77942.92, -170479.50, -170163.47, -170131.45, -98377.60, -170260.63, -170278.41, 0.000, 0.000, 0.000, 20:48:17.377, 1541900897377
223, -120342.59, -78087.91, -170469.97, -170019.80, -170078.38, -98554.80, -170251.28, -170224.48, 0.000, 0.000, 0.000, 20:48:17.378, 1541900897378
224, -120493.49, -78231.48, -170499.80, -169758.83, -170030.97, -98739.34, -170256.34, -170163.91, 0.000, 0.000, 0.000, 20:48:17.378, 1541900897378
225, -120594.19, -78312.89, -170553.66, -169883.80, -169834.06, -98845.58, -170258.02, -170114.00, 0.000, 0.000, 0.000, 20:48:17.378, 1541900897378
226, -120663.85, -78355.31, -170536.05, -170062.70, -169551.97, -98888.79, -170240.58, -170185.70, 0.000, 0.000, 0.000, 20:48:17.378, 1541900897378
227, -120754.22, -78429.50, -170495.84, -170288.39, -169600.58, -98969.25, -170236.63, -170322.66, 0.000, 0.000, 0.000, 20:48:17.378, 1541900897378
228, -120881.78, -78545.19, -170457.92, -170727.53, -169742.72, -99098.63, -170227.13, -170330.88, 0.000, 0.000, 0.000, 20:48:17.379, 1541900897379
229, -121017.55, -78662.76, -170481.52, -171105.03, -169881.80, -99222.16, -170228.42, -170244.56, 0.000, 0.000, 0.000, 20:48:17.379, 1541900897379
230, -121130.13, -78744.88, -170469.27, -171015.92, -169970.06, -99294.91, -170217.17, -170108.59, 0.044, -0.084, 1.002, 20:48:17.379, 1541900897379
231, -121243.13, -78840.68, -170451.77, -170915.27, -170130.91, -99397.06, -170206.78, -170204.81, 0.000, 0.000, 0.000, 20:48:17.379, 1541900897379
232, -121386.20, -78971.77, -170415.27, -170853.17, -170436.00, -99551.91, -170204.27, -170365.81, 0.000, 0.000, 0.000, 20:48:17.380, 1541900897380
233, -121550.34, -79123.18, -170431.86, -170806.42, -170472.77, -99736.43, -170204.92, -170355.31, 0.000, 0.000, 0.000, 20:48:17.380, 1541900897380
234, -121689.58, -79233.38, -170436.00, -170705.34, -170368.92, -99860.69, -170195.09, -170240.64, 0.000, 0.000, 0.000, 20:48:17.380, 1541900897380
235, -121845.10, -79368.29, -170403.48, -170638.63, -170303.39, -100024.74, -170179.52, -170173.17, 0.000, 0.000, 0.000, 20:48:17.380, 1541900897380
236, -122014.16, -79525.80, -170385.59, -170597.20, -170265.06, -100216.32, -170174.42, -170132.42, 0.000, 0.000, 0.000, 20:48:17.380, 1541900897380
237, -122178.14, -79682.67, -170421.39, -170556.91, -170226.80, -100410.00, -170183.47, -170082.48, 0.000, 0.000, 0.000, 20:48:17.380, 1541900897380
238, -122291.13, -79770.31, -170445.20, -170436.09, -170103.00, -100510.96, -170176.70, -170084.23, 0.000, 0.000, 0.000, 20:48:17.381, 1541900897381
239, -122415.18, -79873.60, -170395.55, -170338.14, -170004.55, -100639.30, -170164.81, -170247.69, 0.000, 0.000, 0.000, 20:48:17.381, 1541900897381
240, -122573.19, -80016.16, -170372.86, -170282.83, -169951.13, -100817.74, -170162.42, -170311.53, 0.040, -0.086, 1.000, 20:48:17.833, 1541900897833
241, -122747.38, -80179.41, -170382.02, -170252.38, -169924.59, -101022.98, -170168.00, -170289.83, 0.000, 0.000, 0.000, 20:48:17.834, 1541900897834
242, -122891.67, -80297.84, -170409.42, -170163.41, -169826.02, -101158.96, -170162.86, -170190.28, 0.000, 0.000, 0.000, 20:48:17.834, 1541900897834
243, -123036.16, -80415.25, -170375.88, -170077.69, -169597.63, -101293.95, -170145.08, -170085.06, 0.000, 0.000, 0.000, 20:48:17.834, 1541900897834
244, -123170.05, -80531.34, -170379.78, -169910.63, -169518.00, -101423.54, -170147.73, -170054.64, 0.000, 0.000, 0.000, 20:48:17.834, 1541900897834
245, -123288.35, -80638.77, -170402.75, -169616.34, -169648.03, -101546.20, -170146.84, -170221.69, 0.000, 0.000, 0.000, 20:48:17.834, 1541900897834
246, -123386.41, -80710.18, -170423.75, -169731.81, -169736.50, -101617.51, -170140.69, -170193.94, 0.000, 0.000, 0.000, 20:48:17.834, 1541900897834
247, -123477.65, -80774.04, -170401.92, -169941.00, -169812.28, -101677.52, -170124.17, -170032.89, 0.000, 0.000, 0.000, 20:48:17.834, 1541900897834
248, -123566.36, -80847.35, -170396.69, -170166.81, -169907.70, -101759.76, -170123.22, -170007.72, 0.000, 0.000, 0.000, 20:48:17.835, 1541900897835
249, -123669.54, -80941.12, -170355.58, -170549.19, -170141.03, -101874.94, -170110.66, -170183.81, 0.000, 0.000, 0.000, 20:48:17.835, 1541900897835
250, -123801.63, -81052.48, -170355.72, -170972.42, -170332.00, -102007.59, -170109.33, -170223.45, 0.042, -0.088, 1.002, 20:48:17.836, 1541900897836
251, -123943.03, -81164.68, -170319.17, -170935.00, -170253.70, -102136.67, -170092.75, -170119.66, 0.000, 0.000, 0.000, 20:48:17.836, 1541900897836
252, -124105.33, -81308.38, -170309.53, -170878.61, -170199.28, -102314.80, -170084.20, -170064.09, 0.000, 0.000, 0.000, 20:48:17.836, 1541900897836
253, -124277.86, -81469.70, -170300.91, -170844.34, -170168.16, -102516.14, -170082.38, -170031.97, 0.000, 0.000, 0.000, 20:48:17.836, 1541900897836
254, -124431.53, -81609.21, -170341.61, -170784.78, -170110.16, -102688.31, -170093.89, -169961.41, 0.000, 0.000, 0.000, 20:48:17.836, 1541900897836
255, -124542.06, -81690.51, -170336.56, -170659.50, -169982.55, -102785.43, -170082.55, -169979.56, 0.000, 0.000, 0.000, 20:48:17.836, 1541900897836
0, -124674.05, -81802.27, -170302.50, -170573.16, -169897.39, -102927.68, -170071.56, -170159.16, 0.000, 0.000, 0.000, 20:48:17.836, 1541900897836
1, -124837.82, -81952.84, -170283.19, -170527.06, -169854.34, -103114.77, -170074.23, -170215.61, 0.000, 0.000, 0.000, 20:48:17.837, 1541900897837
2, -125006.58, -82109.11, -170296.80, -170485.31, -169814.80, -103307.68, -170076.31, -170178.16, 0.000, 0.000, 0.000, 20:48:17.840, 1541900897840
3, -125148.13, -82219.44, -170303.83, -170385.08, -169704.56, -103433.86, -170063.00, -170063.67, 0.000, 0.000, 0.000, 20:48:17.840, 1541900897840
4, -125298.53, -82347.78, -170286.84, -170311.81, -169489.92, -103584.44, -170051.81, -169971.64, 0.000, 0.000, 0.000, 20:48:17.841, 1541900897841
5, -125431.52, -82468.52, -170286.25, -170237.56, -169413.14, -103716.77, -170051.31, -170003.89, 0.044, -0.088, 1.002, 20:48:17.841, 1541900897841
6, -125568.84, -82597.12, -170292.73, -170173.08, -169559.77, -103856.69, -170054.13, -170170.34, 0.000, 0.000, 0.000, 20:48:17.841, 1541900897841
7, -125691.37, -82692.02, -170299.91, -170060.66, -169661.45, -103940.75, -170049.03, -170090.22, 0.000, 0.000, 0.000, 20:48:17.872, 1541900897872
8, -125825.14, -82801.88, -170261.41, -169969.97, -169788.69, -104050.01, -170030.88, -169986.06, 0.000, 0.000, 0.000, 20:48:17.873, 1541900897873
9, -125963.45, -82923.78, -170250.48, -169891.78, -170030.98, -104182.84, -170027.17, -169934.14, 0.000, 0.000, 0.000, 20:48:17.874, 1541900897874
10, -126102.81, -83053.38, -170265.19, -169634.92, -170282.47, -104344.29, -170027.50, -170100.39, 0.000, 0.000, 0.000, 20:48:17.875, 1541900897875
11, -126216.36, -83142.01, -170299.95, -169475.23, -170196.02, -104452.18, -170025.83, -170088.20, 0.000, 0.000, 0.000, 20:48:17.875, 1541900897875
12, -126329.33, -83230.12, -170262.78, -169688.73, -170081.30, -104564.72, -170006.84, -169959.70, 0.000, 0.000, 0.000, 20:48:17.875, 1541900897875
13, -126444.46, -83329.22, -170260.42, -169942.98, -169986.59, -104701.05, -170004.19, -169900.56, 0.000, 0.000, 0.000, 20:48:17.876, 1541900897876
14, -126560.96, -83438.08, -170245.31, -170249.61, -169908.17, -104851.90, -169999.05, -170064.27, 0.000, 0.000, 0.000, 20:48:17.877, 1541900897877
15, -126680.50, -83537.23, -170257.33, -170741.70, -169804.61, -104976.64, -170001.70, -170081.44, 0.038, -0.084, 0.998, 20:48:17.877, 1541900897877
16, -126818.50, -83647.69, -170210.19, -170855.55, -169705.97, -105107.22, -169979.95, -169978.53, 0.000, 0.000, 0.000, 20:48:17.878, 1541900897878
17, -126977.26, -83789.63, -170201.08, -170797.92, -169649.64, -105281.54, -169972.89, -169905.59, 0.000, 0.000, 0.000, 20:48:17.878, 1541900897878
18, -127128.36, -83932.77, -170201.69, -170745.13, -169553.08, -105462.77, -169977.50, -169963.47, 0.000, 0.000, 0.000, 20:48:17.878, 1541900897878
19, -127263.79, -84050.87, -170232.83, -170662.63, -169318.97, -105594.33, -169981.97, -170071.72, 0.000, 0.000, 0.000, 20:48:17.878, 1541900897878
20, -127389.94, -84145.40, -170206.38, -170551.67, -169339.36, -105678.62, -169964.92, -169972.66, 0.000, 0.000, 0.000, 20:48:17.878, 1541900897878
21, -127533.71, -84267.02, -170185.70, -170477.36, -169483.06, -105806.38, -169953.88, -169885.02, 0.000, 0.000, 0.000, 20:48:17.878, 1541900897878
22, -127670.84, -84391.80, -170191.47, -170411.28, -169633.34, -105944.34, -169957.11, -169878.30, 0.000, 0.000, 0.000, 20:48:17.879, 1541900897879
23, -127793.32, -84501.80, -170213.88, -170326.70, -169763.45, -106060.09, -169960.53, -170033.09, 0.000, 0.000, 0.000, 20:48:17.879, 1541900897879
24, -127911.43, -84590.94, -170188.05, -170207.95, -169964.88, -106138.20, -169944.80, -169988.25, 0.000, 0.000, 0.000, 20:48:17.879, 1541900897879
25, -128064.36, -84723.70, -170150.84, -170140.95, -170190.53, -106292.91, -169928.11, -169920.34, 0.038, -0.080, 1.000, 20:48:17.879, 1541900897879
26, -128234.84, -84879.45, -170138.83, -170101.28, -170175.36, -106486.30, -169927.05, -169881.02, 0.000, 0.000, 0.000, 20:48:17.880, 1541900897880
27, -128399.30, -85030.46, -170176.94, -170057.47, -170132.91, -106675.89, -169935.28, -169825.33, 0.000, 0.000, 0.000, 20:48:17.880, 1541900897880
28, -128513.79, -85116.87, -170193.91, -169936.75, -170009.19, -106776.49, -169931.56, -169812.86, 0.000, 0.000, 0.000, 20:48:17.880, 1541900897880
29, -128638.33, -85223.04, -170145.92, -169840.75, -169914.30, -106909.75, -169919.23, -169984.66, 0.000, 0.000, 0.000, 20:48:17.880, 1541900897880
30, -128798.55, -85368.15, -170113.80, -169788.58, -169863.73, -107089.51, -169915.00, -170066.69, 0.000, 0.000, 0.000, 20:48:17.880, 1541900897880
31, -128969.90, -85527.94, -170135.38, -169658.70, -169833.13, -107290.83, -169919.81, -170042.56, 0.000, 0.000, 0.000, 20:48:17.880, 1541900897880
32, -129090.28, -85622.35, -170186.59, -169339.22, -169720.19, -107404.04, -169913.02, -169914.16, 0.000, 0.000, 0.000, 20:48:17.880, 1541900897880
33, -129197.70, -85706.33, -170162.47, -169474.36, -169598.48, -107512.87, -169901.33, -169794.33, 0.000, 0.000, 0.000, 20:48:17.881, 1541900897881
34, -129300.75, -85792.90, -170154.61, -169713.38, -169360.56, -107628.56, -169895.14, -169883.88, 0.000, 0.000, 0.000, 20:48:17.881, 1541900897881
35, -129416.13, -85896.27, -170140.72, -169977.14, -169254.73, -107754.47, -169890.47, -170031.19, 0.040, -0.080, 1.000, 20:48:17.881, 1541900897881
36, -129516.73, -85971.71, -170164.73, -170301.56, -169333.28, -107825.08, -169882.91, -169931.95, 0.000, 0.000, 0.000, 20:48:17.881, 1541900897881
37, -129627.41, -86056.76, -170114.34, -170726.23, -169431.14, -107905.50, -169867.03, -169789.45, 0.000, 0.000, 0.000, 20:48:17.881, 1541900897881
38, -129750.30, -86162.15, -170107.75, -170722.78, -169559.36, -108016.92, -169862.91, -169817.50, 0.000, 0.000, 0.000, 20:48:17.881, 1541900897881
39, -129889.20, -86290.05, -170086.63, -170660.08, -169775.28, -108161.12, -169858.92, -170003.09, 0.000, 0.000, 0.000, 20:48:17.882, 1541900897882
40, -130030.84, -86409.74, -170105.44, -170577.56, -170053.20, -108293.88, -169859.14, -169974.08, 0.000, 0.000, 0.000, 20:48:17.882, 1541900897882
41, -130172.60, -86522.05, -170068.81, -170483.25, -170023.95, -108423.81, -169843.44, -169868.48, 0.000, 0.000, 0.000, 20:48:17.882, 1541900897882
42, -130333.84, -86666.77, -170054.80, -170427.70, -169969.67, -108599.05, -169831.83, -169813.81, 0.000, 0.000, 0.000, 20:48:17.883, 1541900897883
43, -130507.38, -86830.38, -170049.41, -170395.03, -169940.59, -108799.23, -169832.03, -169779.20, 0.000, 0.000, 0.000, 20:48:17.883, 1541900897883
44, -130655.02, -86961.38, -170092.72, -170325.78, -169872.77, -108959.97, -169844.34, -169720.70, 0.000, 0.000, 0.000, 20:48:17.883, 1541900897883
45, -130763.11, -87041.22, -170084.72, -170200.70, -169745.56, -109054.07, -169831.81, -169791.16, 0.044, -0.084, 0.998, 20:48:17.883, 1541900897883
46, -130901.29, -87159.04, -170045.86, -170121.61, -169668.64, -109202.30, -169821.23, -169958.03, 0.000, 0.000, 0.000, 20:48:17.883, 1541900897883
47, -131071.88, -87315.43, -170022.19, -170082.89, -169631.89, -109394.77, -169818.47, -169978.53, 0.000, 0.000, 0.000, 20:48:17.884, 1541900897884
48, -131235.89, -87464.09, -170058.77, -170035.73, -169586.03, -109576.70, -169824.45, -169931.95, 0.000, 0.000, 0.000, 20:48:17.884, 1541900897884
49, -131373.09, -87572.39, -170046.09, -169935.69, -169483.03, -109697.24, -169811.00, -169817.58, 0.000, 0.000, 0.000, 20:48:17.884, 1541900897884
50, -131527.63, -87707.88, -170026.05, -169868.80, -169354.20, -109858.10, -169797.77, -169736.80, 0.000, 0.000, 0.000, 20:48:17.885, 1541900897885
51, -131670.45, -87835.60, -170036.36, -169803.53, -169151.73, -110008.98, -169803.38, -169721.97, 0.000, 0.000, 0.000, 20:48:17.885, 1541900897885
52, -131802.56, -87953.98, -170047.63, -169717.42, -169235.58, -110140.70, -169808.97, -169892.97, 0.000, 0.000, 0.000, 20:48:17.885, 1541900897885
53, -131914.56, -88035.41, -170060.89, -169369.48, -169325.25, -110211.66, -169800.63, -169849.58, 0.000, 0.000, 0.000, 20:48:17.886, 1541900897886
54, -132023.45, -88120.27, -170044.28, -169282.42, -169430.47, -110301.18, -169782.86, -169721.34, 0.000, 0.000, 0.000, 20:48:17.886, 1541900897886
55, -132122.16, -88203.42, -170046.59, -169513.25, -169539.89, -110396.52, -169782.27, -169671.17, 0.046, -0.088, 1.000, 20:48:17.886, 1541900897886
56, -132219.97, -88292.12, -170041.77, -169760.20, -169730.69, -110503.16, -169777.63, -169829.36, 0.000, 0.000, 0.000, 20:48:17.887, 1541900897887
57, -132317.20, -88360.55, -170036.83, -170003.58, -169935.20, -110581.25, -169766.50, -169816.91, 0.000, 0.000, 0.000, 20:48:17.887, 1541900897887
58, -132445.44, -88461.14, -169979.94, -170492.48, -169883.27, -110707.12, -169743.08, -169710.84, 0.000, 0.000, 0.000, 20:48:17.888, 1541900897888
59, -132596.64, -88594.18, -169971.67, -170670.66, -169822.02, -110875.42, -169741.36, -169653.42, 0.000, 0.000, 0.000, 20:48:17.888, 1541900897888
60, -132749.17, -88737.48, -169965.97, -170624.41, -169777.03, -111059.04, -169742.56, -169813.11, 0.000, 0.000, 0.000, 20:48:17.891, 1541900897891
61, -132888.97, -88854.04, -169994.00, -170536.05, -169688.31, -111195.84, -169748.22, -169836.50, 0.000, 0.000, 0.000, 20:48:17.891, 1541900897891
62, -133033.06, -88972.26, -169954.45, -170447.33, -169599.80, -111333.66, -169729.98, -169743.09, 0.000, 0.000, 0.000, 20:48:17.892, 1541900897892
63, -133195.63, -89117.32, -169945.61, -170393.02, -169548.13, -111512.45, -169719.42, -169689.94, 0.000, 0.000, 0.000, 20:48:17.892, 1541900897892
64, -133367.77, -89279.30, -169938.30, -170361.33, -169519.17, -111715.00, -169722.17, -169653.58, 0.000, 0.000, 0.000, 20:48:17.893, 1541900897893
65, -133505.31, -89397.48, -169992.75, -170277.64, -169412.94, -111857.42, -169735.05, -169597.61, 0.042, -0.082, 1.000, 20:48:17.893, 1541900897893
66, -133609.58, -89474.05, -169969.36, -170149.55, -169121.63, -111939.81, -169720.09, -169688.00, 0.000, 0.000, 0.000, 20:48:17.897, 1541900897897
67, -133736.14, -89581.85, -169943.33, -170062.02, -169105.58, -112054.61, -169711.17, -169842.52, 0.000, 0.000, 0.000, 20:48:17.898, 1541900897898
68, -133892.56, -89727.07, -169914.53, -170014.50, -169277.94, -112211.77, -169709.44, -169848.83, 0.000, 0.000, 0.000, 20:48:17.898, 1541900897898
69, -134037.94, -89857.01, -169952.11, -169947.50, -169429.59, -112345.85, -169706.11, -169777.75, 0.000, 0.000, 0.000, 20:48:17.899, 1541900897899
70, -134159.34, -89949.05, -169940.06, -169832.50, -169559.91, -112426.79, -169689.81, -169640.08, 0.000, 0.000, 0.000, 20:48:17.900, 1541900897900
71, -134291.64, -90061.19, -169925.36, -169747.91, -169856.41, -112553.34, -169684.47, -169586.80, 0.000, 0.000, 0.000, 20:48:17.901, 1541900897901
72, -134433.38, -90188.39, -169902.08, -169684.42, -169919.55, -112717.43, -169681.72, -169762.34, 0.000, 0.000, 0.000, 20:48:17.901, 1541900897901
73, -134592.88, -90333.55, -169912.17, -169634.80, -169869.77, -112898.68, -169683.80, -169846.67, 0.000, 0.000, 0.000, 20:48:17.901, 1541900897901
74, -134733.11, -90441.95, -169903.53, -169483.81, -169766.33, -113020.41, -169676.25, -169737.06, 0.000, 0.000, 0.000, 20:48:17.902, 1541900897902
75, -134877.27, -90562.54, -169907.16, -169163.41, -169689.72, -113169.02, -169664.08, -169652.66, 0.000, 0.000, 0.000, 20:48:17.902, 1541900897902
76, -135008.88, -90677.76, -169903.06, -169257.13, -169614.22, -113322.36, -169660.17, -169575.23, 0.046, -0.076, 1.002, 20:48:17.902, 1541900897902
77, -135120.67, -90779.30, -169933.20, -169517.55, -169528.63, -113464.47, -169663.22, -169682.13, 0.000, 0.000, 0.000, 20:48:17.902, 1541900897902
78, -135215.39, -90844.91, -169926.78, -169725.06, -169388.23, -113545.47, -169652.69, -169727.88, 0.000, 0.000, 0.000, 20:48:17.902, 1541900897902
79, -135337.33, -90943.10, -169876.97, -170129.42, -169269.53, -113670.77, -169635.45, -169642.61, 0.000, 0.000, 0.000, 20:48:17.903, 1541900897903
80, -135480.58, -91072.76, -169858.98, -170534.48, -169046.59, -113824.29, -169630.16, -169561.53, 0.000, 0.000, 0.000, 20:48:17.903, 1541900897903
81, -135614.11, -91198.31, -169884.06, -170512.31, -169032.73, -113964.32, -169636.41, -169632.61, 0.000, 0.000, 0.000, 20:48:17.903, 1541900897903
82, -135725.17, -91283.00, -169889.61, -170393.67, -169126.06, -114040.09, -169634.11, -169712.72, 0.000, 0.000, 0.000, 20:48:17.903, 1541900897903
83, -135855.73, -91389.66, -169843.66, -170297.02, -169247.50, -114142.22, -169612.20, -169640.61, 0.000, 0.000, 0.000, 20:48:17.903, 1541900897903
84, -136006.97, -91523.20, -169831.77, -170233.31, -169424.77, -114281.56, -169601.50, -169579.19, 0.000, 0.000, 0.000, 20:48:17.903, 1541900897903
85, -136168.98, -91676.03, -169829.27, -170194.80, -169765.94, -114456.62, -169603.28, -169535.78, 0.000, 0.000, 0.000, 20:48:17.904, 1541900897904
86, -136299.28, -91782.56, -169872.27, -170101.08, -169826.56, -114583.91, -169615.42, -169467.44, 0.048, -0.080, 1.002, 20:48:17.904, 1541900897904
87, -136412.16, -91866.85, -169841.84, -169983.61, -169709.17, -114688.56, -169596.45, -169574.00, 0.000, 0.000, 0.000, 20:48:17.904, 1541900897904
88, -136553.23, -91990.97, -169816.61, -169911.67, -169638.58, -114845.25, -169588.14, -169736.95, 0.000, 0.000, 0.000, 20:48:17.904, 1541900897904
89, -136725.61, -92152.69, -169798.08, -169880.38, -169609.75, -115046.46, -169587.97, -169751.86, 0.000, 0.000, 0.000, 20:48:17.904, 1541900897904
90, -136883.80, -92290.44, -169831.95, -169816.59, -169546.17, -115211.30, -169592.20, -169683.83, 0.000, 0.000, 0.000, 20:48:17.905, 1541900897905
91, -137026.52, -92401.62, -169812.03, -169720.61, -169448.25, -115339.63, -169575.50, -169575.95, 0.000, 0.000, 0.000, 20:48:17.905, 1541900897905
92, -137188.56, -92543.17, -169795.22, -169663.55, -169393.50, -115515.47, -169565.17, -169508.27, 0.000, 0.000, 0.000, 20:48:17.906, 1541900897906
93, -137344.41, -92688.41, -169790.30, -169615.73, -169348.25, -115698.98, -169566.88, -169513.59, 0.000, 0.000, 0.000, 20:48:17.906, 1541900897906
94, -137485.63, -92815.33, -169814.28, -169545.52, -169271.56, -115855.93, -169575.34, -169664.84, 0.000, 0.000, 0.000, 20:48:17.907, 1541900897907
95, -137615.63, -92914.92, -169803.98, -169398.25, -169024.16, -115963.51, -169566.25, -169609.33, 0.000, 0.000, 0.000, 20:48:17.907, 1541900897907
96, -137745.08, -93022.97, -169809.06, -169067.06, -168925.05, -116081.79, -169553.80, -169511.20, 0.046, -0.082, 1.000, 20:48:17.907, 1541900897907
97, -137853.13, -93116.60, -169817.84, -169110.25, -169038.66, -116189.59, -169552.91, -169452.41, 0.000, 0.000, 0.000, 20:48:17.907, 1541900897907
98, -137944.50, -93194.30, -169835.81, -169344.77, -169145.17, -116281.30, -169550.50, -169582.45, 0.000, 0.000, 0.000, 20:48:17.907, 1541900897907
99, -138023.56, -93244.23, -169818.52, -169534.89, -169203.13, -116321.40, -169532.08, -169599.53, 0.000, 0.000, 0.000, 20:48:17.908, 1541900897908
100, -138130.09, -93329.98, -169782.77, -169843.59, -169309.89, -116409.87, -169522.69, -169495.48, 0.000, 0.000, 0.000, 20:48:17.908, 1541900897908
101, -138255.08, -93438.49, -169754.67, -170338.61, -169558.34, -116533.30, -169516.34, -169430.44, 0.000, 0.000, 0.000, 20:48:17.908, 1541900897908
102, -138397.45, -93567.88, -169749.92, -170407.55, -169781.70, -116697.76, -169517.03, -169592.22, 0.000, 0.000, 0.000, 20:48:17.909, 1541900897909
103, -138530.81, -93671.35, -169762.75, -170304.78, -169697.39, -116817.21, -169514.08, -169585.56, 0.000, 0.000, 0.000, 20:48:17.909, 1541900897909
104, -138679.73, -93797.02, -169721.44, -170226.88, -169620.13, -116965.24, -169495.98, -169506.30, 0.000, 0.000, 0.000, 20:48:18.332, 1541900898332
105, -138845.72, -93946.81, -169705.61, -170179.41, -169574.66, -117148.55, -169487.61, -169460.45, 0.000, 0.000, 0.000, 20:48:18.334, 1541900898334
106, -139019.03, -94109.76, -169714.17, -170149.52, -169548.77, -117353.83, -169491.73, -169424.83, 0.044, -0.078, 0.996, 20:48:18.334, 1541900898334
107, -139146.48, -94210.99, -169759.64, -170048.11, -169446.13, -117475.42, -169494.13, -169357.53, 0.000, 0.000, 0.000, 20:48:18.334, 1541900898334
108, -139262.63, -94299.59, -169722.52, -169938.77, -169336.45, -117586.76, -169479.80, -169485.27, 0.000, 0.000, 0.000, 20:48:18.335, 1541900898335
109, -139411.80, -94428.61, -169696.00, -169873.55, -169274.25, -117749.92, -169472.80, -169627.88, 0.000, 0.000, 0.000, 20:48:18.335, 1541900898335
110, -139586.50, -94591.26, -169683.28, -169844.69, -169248.23, -117954.82, -169475.70, -169628.77, 0.000, 0.000, 0.000, 20:48:18.335, 1541900898335
111, -139737.67, -94719.23, -169725.66, -169769.41, -169172.13, -118107.59, -169478.39, -169546.22, 0.000, 0.000, 0.000, 20:48:18.336, 1541900898336
112, -139878.19, -94831.07, -169697.83, -169673.73, -168979.31, -118234.35, -169460.64, -169439.06, 0.000, 0.000, 0.000, 20:48:18.336, 1541900898336
113, -140022.97, -94956.98, -169696.83, -169602.33, -168817.88, -118371.95, -169456.55, -169354.72, 0.000, 0.000, 0.000, 20:48:18.336, 1541900898336
114, -140154.23, -95077.77, -169689.44, -169537.03, -168938.34, -118505.70, -169454.97, -169442.73, 0.000, 0.000, 0.000, 20:48:18.336, 1541900898336
115, -140275.98, -95182.06, -169710.91, -169447.41, -169065.48, -118613.57, -169460.02, -169563.91, 0.000, 0.000, 0.000, 20:48:18.337, 1541900898337
116, -140397.20, -95276.30, -169677.94, -169328.11, -169171.78, -118697.98, -169443.34, -169470.73, 0.042, -0.074, 1.002, 20:48:18.337, 1541900898337
117, -140534.52, -95394.47, -169674.13, -169052.45, -169390.05, -118824.38, -169432.30, -169379.70, 0.000, 0.000, 0.000, 20:48:18.337, 1541900898337
118, -140656.61, -95503.79, -169684.06, -168929.94, -169656.69, -118962.82, -169430.39, -169358.06, 0.000, 0.000, 0.000, 20:48:18.337, 1541900898337
119, -140762.55, -95595.03, -169708.09, -169158.16, -169607.31, -119090.31, -169429.59, -169499.69, 0.000, 0.000, 0.000, 20:48:18.337, 1541900898337
120, -140862.30, -95663.48, -169689.94, -169367.31, -169469.17, -119175.38, -169416.52, -169443.92, 0.000, 0.000, 0.000, 20:48:18.338, 1541900898338
121, -140984.78, -95763.72, -169659.56, -169651.34, -169374.39, -119307.17, -169408.27, -169332.63, 0.000, 0.000, 0.000, 20:48:18.338, 1541900898338
122, -141111.16, -95876.73, -169639.41, -170161.86, -169297.22, -119454.91, -169403.27, -169347.58, 0.000, 0.000, 0.000, 20:48:18.338, 1541900898338
123, -141257.34, -96011.76, -169634.20, -170344.77, -169241.53, -119624.84, -169401.83, -169522.63, 0.000, 0.000, 0.000, 20:48:18.338, 1541900898338
124, -141393.08, -96119.00, -169641.36, -170244.84, -169138.89, -119745.38, -169397.55, -169459.47, 0.000, 0.000, 0.000, 20:48:18.339, 1541900898339
125, -141544.25, -96250.50, -169601.61, -170174.47, -169070.95, -119903.56, -169382.67, -169387.69, 0.000, 0.000, 0.000, 20:48:18.340, 1541900898340
126, -141710.08, -96403.63, -169594.22, -170129.94, -169029.23, -120091.20, -169377.53, -169344.95, 0.044, -0.072, 1.000, 20:48:18.341, 1541900898341
127, -141878.13, -96563.69, -169613.88, -170095.78, -168935.39, -120289.91, -169377.13, -169303.94, 0.000, 0.000, 0.000, 20:48:18.341, 1541900898341
128, -141993.75, -96651.66, -169656.63, -169979.52, -168678.16, -120380.45, -169369.25, -169218.17, 0.000, 0.000, 0.000, 20:48:18.342, 1541900898342
129, -142094.59, -96727.71, -169622.64, -169859.66, -168710.67, -120455.55, -169370.19, -169327.47, 0.000, 0.000, 0.000, 20:48:18.342, 1541900898342
130, -142218.64, -96836.67, -169590.88, -169776.88, -168844.61, -120571.74, -169362.83, -169502.48, 0.000, 0.000, 0.000, 20:48:18.342, 1541900898342
131, -142374.44, -96982.34, -169584.16, -169731.97, -169020.64, -120733.13, -169360.77, -169534.11, 0.000, 0.000, 0.000, 20:48:18.343, 1541900898343
132, -142506.17, -97088.82, -169617.75, -169635.98, -169144.41, -120833.66, -169364.45, -169428.88, 0.000, 0.000, 0.000, 20:48:18.343, 1541900898343
133, -142638.91, -97194.92, -169573.83, -169538.53, -169389.50, -120937.62, -169338.63, -169321.59, 0.000, 0.000, 0.000, 20:48:18.343, 1541900898343
134, -142789.89, -97329.26, -169570.59, -169476.59, -169591.95, -121098.62, -169334.55, -169247.77, 0.000, 0.000, 0.000, 20:48:18.343, 1541900898343
135, -142937.84, -97467.30, -169563.66, -169427.42, -169559.14, -121278.13, -169336.30, -169365.67, 0.000, 0.000, 0.000, 20:48:18.343, 1541900898343
136, -143074.55, -97582.75, -169587.11, -169345.70, -169475.03, -121421.55, -169342.31, -169442.63, 0.042, -0.074, 0.998, 20:48:18.344, 1541900898344
137, -143213.98, -97693.23, -169545.47, -169252.52, -169380.33, -121552.91, -169322.03, -169350.02, 0.000, 0.000, 0.000, 20:48:18.344, 1541900898344
138, -143375.34, -97835.75, -169524.72, -169198.14, -169327.38, -121729.95, -169314.38, -169295.33, 0.000, 0.000, 0.000, 20:48:18.344, 1541900898344
139, -143548.63, -97997.45, -169515.89, -169134.28, -169298.16, -121931.51, -169318.69, -169264.33, 0.000, 0.000, 0.000, 20:48:18.344, 1541900898344
140, -143691.53, -98122.10, -169599.75, -168815.59, -169227.20, -122086.32, -169316.97, -169183.23, 0.000, 0.000, 0.000, 20:48:18.344, 1541900898344
141, -143774.00, -98174.42, -169599.80, -168766.55, -169077.42, -122157.51, -169306.66, -169189.48, 0.000, 0.000, 0.000, 20:48:18.344, 1541900898344
142, -143867.27, -98248.45, -169567.41, -168993.64, -168942.88, -122266.74, -169304.69, -169349.70, 0.000, 0.000, 0.000, 20:48:18.344, 1541900898344
143, -143988.19, -98356.59, -169534.88, -169263.27, -168705.13, -122407.02, -169295.02, -169438.89, 0.000, 0.000, 0.000, 20:48:18.344, 1541900898344
144, -144103.23, -98456.86, -169571.25, -169544.38, -168677.97, -122521.28, -169298.44, -169358.20, 0.000, 0.000, 0.000, 20:48:18.345, 1541900898345
145, -144191.83, -98515.63, -169565.00, -169978.17, -168745.20, -122568.76, -169285.41, -169191.39, 0.000, 0.000, 0.000, 20:48:18.345, 1541900898345
146, -144298.30, -98599.58, -169524.98, -170159.27, -168850.69, -122657.38, -169276.66, -169252.97, 0.000, 0.000, 0.000, 20:48:18.346, 1541900898346
147, -144431.61, -98717.91, -169490.91, -170091.63, -168999.39, -122786.38, -169268.19, -169420.16, 0.046, -0.080, 1.002, 20:48:18.346, 1541900898346
148, -144587.86, -98861.63, -169498.22, -170041.89, -169295.11, -122947.22, -169269.13, -169422.06, 0.000, 0.000, 0.000, 20:48:18.346, 1541900898346
149, -144723.22, -98967.76, -169498.19, -169941.47, -169453.53, -123061.91, -169261.47, -169307.66, 0.000, 0.000, 0.000, 20:48:18.346, 1541900898346
150, -144876.48, -99097.41, -169469.13, -169870.09, -169397.06, -123218.50, -169242.80, -169232.00, 0.000, 0.000, 0.000, 20:48:18.346, 1541900898346
151, -145036.63, -99241.98, -169472.16, -169816.72, -169346.73, -123396.94, -169243.80, -169168.91, 0.000, 0.000, 0.000, 20:48:18.347, 1541900898347
152, -145182.53, -99381.89, -169480.28, -169764.64, -169297.77, -123574.68, -169248.36, -169278.11, 0.000, 0.000, 0.000, 20:48:18.347, 1541900898347
153, -145310.00, -99486.60, -169491.55, -169662.83, -169193.88, -123693.45, -169245.06, -169343.27, 0.000, 0.000, 0.000, 20:48:18.347, 1541900898347
154, -145457.91, -99609.61, -169452.41, -169582.41, -169113.45, -123839.10, -169227.75, -169272.08, 0.000, 0.000, 0.000, 20:48:18.347, 1541900898347
155, -145622.69, -99756.84, -169445.47, -169533.27, -169065.66, -124021.65, -169223.73, -169223.39, 0.000, 0.000, 0.000, 20:48:18.347, 1541900898347
156, -145796.95, -99921.95, -169444.19, -169505.81, -169041.25, -124227.30, -169230.27, -169198.88, 0.000, 0.000, 0.000, 20:48:18.347, 1541900898347
157, -145936.77, -100039.41, -169488.00, -169418.89, -168953.92, -124363.80, -169226.39, -169097.73, 0.044, -0.082, 0.994, 20:48:18.347, 1541900898347
158, -146050.16, -100127.77, -169465.27, -169304.59, -168759.78, -124468.70, -169216.09, -169146.95, 0.000, 0.000, 0.000, 20:48:18.347, 1541900898347
159, -146175.70, -100236.88, -169448.64, -169220.95, -168558.08, -124594.38, -169209.88, -169330.70, 0.000, 0.000, 0.000, 20:48:18.364, 1541900898364
160, -146326.94, -100379.18, -169425.81, -169173.44, -168686.31, -124749.04, -169206.03, -169381.14, 0.000, 0.000, 0.000, 20:48:18.365, 1541900898365
161, -146462.30, -100495.49, -169460.45, -168999.98, -168820.95, -124863.57, -169212.67, -169293.27, 0.000, 0.000, 0.000, 20:48:18.365, 1541900898365
162, -146568.41, -100573.01, -169462.66, -168657.81, -168910.83, -124932.61, -169193.78, -169145.50, 0.000, 0.000, 0.000, 20:48:18.365, 1541900898365
163, -146667.02, -100651.00, -169460.64, -168786.33, -169025.42, -125019.34, -169190.89, -169064.88, 0.000, 0.000, 0.000, 20:48:18.366, 1541900898366
164, -146769.08, -100739.35, -169435.63, -169036.42, -169293.09, -125130.96, -169180.91, -169210.77, 0.000, 0.000, 0.000, 20:48:18.366, 1541900898366
165, -146881.05, -100833.43, -169454.64, -169290.41, -169393.19, -125254.95, -169182.84, -169285.48, 0.000, 0.000, 0.000, 20:48:18.367, 1541900898367
166, -146989.17, -100909.98, -169418.28, -169677.92, -169269.80, -125349.65, -169162.89, -169158.63, 0.000, 0.000, 0.000, 20:48:18.368, 1541900898368
167, -147131.22, -101032.25, -169389.22, -170059.05, -169196.69, -125504.28, -169153.73, -169067.83, 0.042, -0.080, 0.992, 20:48:18.368, 1541900898368
168, -147277.89, -101163.97, -169377.20, -170035.45, -169138.89, -125674.55, -169152.70, -169136.78, 0.000, 0.000, 0.000, 20:48:18.368, 1541900898368
169, -147428.09, -101300.09, -169394.33, -169977.80, -169083.59, -125846.89, -169157.81, -169287.72, 0.000, 0.000, 0.000, 20:48:18.368, 1541900898368
170, -147564.00, -101406.58, -169388.38, -169875.00, -168979.25, -125967.03, -169147.69, -169200.48, 0.000, 0.000, 0.000, 20:48:18.368, 1541900898368
171, -147719.48, -101540.17, -169355.78, -169807.67, -168914.56, -126131.31, -169131.11, -169133.08, 0.000, 0.000, 0.000, 20:48:18.368, 1541900898368
172, -147887.63, -101693.44, -169341.03, -169766.50, -168876.30, -126322.60, -169126.97, -169093.88, 0.000, 0.000, 0.000, 20:48:18.368, 1541900898368
173, -148055.53, -101851.09, -169367.91, -169731.59, -168835.03, -126519.90, -169130.22, -169048.92, 0.000, 0.000, 0.000, 20:48:18.369, 1541900898369
174, -148173.02, -101938.01, -169406.25, -169615.14, -168573.98, -126617.73, -169126.77, -168980.34, 0.000, 0.000, 0.000, 20:48:18.369, 1541900898369
175, -148278.47, -102017.67, -169373.05, -169500.16, -168456.02, -126703.18, -169122.72, -169113.45, 0.000, 0.000, 0.000, 20:48:18.369, 1541900898369
176, -148409.86, -102133.19, -169338.70, -169422.86, -168589.80, -126825.45, -169111.44, -169255.42, 0.000, 0.000, 0.000, 20:48:18.369, 1541900898369
177, -148567.09, -102278.65, -169341.97, -169378.08, -168768.05, -126984.77, -169114.52, -169246.48, 0.042, -0.086, 0.996, 20:48:18.369, 1541900898369
178, -148696.14, -102378.34, -169363.09, -169276.30, -168886.58, -127077.73, -169110.61, -169133.13, 0.000, 0.000, 0.000, 20:48:18.369, 1541900898369
179, -148828.22, -102482.59, -169328.47, -169182.20, -169128.52, -127184.57, -169088.73, -169017.06, 0.000, 0.000, 0.000, 20:48:18.370, 1541900898370
180, -148968.98, -102605.26, -169324.34, -169111.92, -169332.03, -127333.21, -169093.22, -169016.17, 0.000, 0.000, 0.000, 20:48:18.370, 1541900898370
181, -149119.41, -102745.06, -169309.03, -169064.08, -169304.27, -127514.06, -169092.42, -169215.63, 0.000, 0.000, 0.000, 20:48:18.370, 1541900898370
182, -149263.98, -102866.13, -169330.89, -168946.86, -169221.88, -127657.52, -169092.03, -169204.42, 0.000, 0.000, 0.000, 20:48:18.370, 1541900898370
183, -149396.28, -102968.13, -169326.58, -168601.92, -169119.64, -127780.65, -169076.39, -169094.52, 0.000, 0.000, 0.000, 20:48:18.370, 1541900898370
184, -149523.39, -103073.86, -169322.77, -168641.14, -169035.53, -127922.36, -169070.38, -168992.58, 0.000, 0.000, 0.000, 20:48:18.370, 1541900898370
185, -149639.66, -103178.63, -169320.53, -168909.48, -168957.88, -128070.20, -169069.34, -169026.81, 0.000, 0.000, 0.000, 20:48:18.370, 1541900898370
186, -149737.69, -103258.35, -169352.97, -169141.91, -168844.20, -128178.80, -169073.16, -169159.84, 0.000, 0.000, 0.000, 20:48:18.370, 1541900898370
187, -149843.70, -103334.62, -169307.59, -169492.69, -168715.41, -128273.82, -169050.38, -169097.41, 0.040, -0.080, 0.996, 20:48:18.371, 1541900898371
188, -149991.67, -103461.04, -169268.69, -169935.55, -168545.64, -128430.59, -169036.97, -169029.20, 0.000, 0.000, 0.000, 20:48:18.371, 1541900898371
189, -150150.47, -103608.52, -169261.63, -169951.33, -168420.98, -128598.52, -169036.48, -168981.89, 0.000, 0.000, 0.000, 20:48:18.371, 1541900898371
190, -150282.44, -103725.97, -169310.38, -169873.78, -168536.75, -128721.70, -169050.13, -168914.89, 0.000, 0.000, 0.000, 20:48:18.371, 1541900898371
191, -150374.80, -103788.22, -169298.70, -169733.02, -168608.75, -128769.70, -169034.61, -168964.36, 0.000, 0.000, 0.000, 20:48:18.371, 1541900898371
192, -150491.25, -103884.34, -169265.02, -169634.30, -168728.94, -128868.73, -169022.97, -169125.14, 0.000, 0.000, 0.000, 20:48:18.371, 1541900898371
193, -150641.63, -104019.05, -169230.50, -169577.19, -168985.58, -129018.16, -169019.92, -169147.73, 0.000, 0.000, 0.000, 20:48:18.372, 1541900898372
194, -150803.50, -104165.90, -169253.27, -169532.44, -169262.02, -129194.60, -169023.58, -169105.45, 0.000, 0.000, 0.000, 20:48:18.372, 1541900898372
195, -150940.98, -104273.73, -169252.67, -169432.72, -169194.78, -129316.70, -169010.23, -168990.66, 0.000, 0.000, 0.000, 20:48:18.373, 1541900898373
196, -151090.45, -104401.38, -169231.28, -169359.27, -169123.39, -129471.00, -168998.00, -168901.31, 0.000, 0.000, 0.000, 20:48:18.373, 1541900898373
197, -151234.22, -104528.60, -169222.69, -169294.09, -169059.47, -129632.71, -168996.50, -168981.55, 0.042, -0.078, 1.000, 20:48:18.374, 1541900898374
198, -151388.84, -104672.19, -169230.23, -169247.22, -169015.77, -129815.98, -169000.91, -169148.77, 0.000, 0.000, 0.000, 20:48:18.374, 1541900898374
199, -151525.20, -104781.53, -169244.56, -169150.13, -168916.64, -129940.72, -168999.55, -169066.95, 0.000, 0.000, 0.000, 20:48:18.374, 1541900898374
200, -151672.89, -104905.59, -169205.97, -169073.78, -168840.11, -130089.61, -168979.98, -168985.27, 0.000, 0.000, 0.000, 20:48:18.374, 1541900898374
201, -151836.27, -105052.10, -169194.66, -169026.34, -168794.83, -130270.23, -168974.78, -168938.19, 0.000, 0.000, 0.000, 20:48:18.374, 1541900898374
202, -152006.98, -105211.42, -169204.88, -168996.77, -168768.00, -130470.39, -168983.50, -168898.84, 0.000, 0.000, 0.000, 20:48:18.374, 1541900898374
203, -152131.13, -105308.14, -169244.16, -168877.45, -168649.58, -130585.68, -168988.97, -168852.77, 0.000, 0.000, 0.000, 20:48:18.374, 1541900898374
204, -152237.23, -105384.65, -169228.67, -168531.56, -168374.39, -130676.90, -168972.92, -168981.31, 0.000, 0.000, 0.000, 20:48:18.374, 1541900898374
205, -152345.28, -105471.77, -169224.72, -168451.25, -168302.53, -130777.86, -168965.95, -169090.92, 0.000, 0.000, 0.000, 20:48:18.375, 1541900898375
206, -152469.67, -105584.07, -169204.98, -168718.53, -168446.50, -130907.77, -168961.38, -169049.45, 0.000, 0.000, 0.000, 20:48:18.375, 1541900898375
207, -152567.34, -105658.91, -169254.88, -168944.00, -168540.06, -130980.23, -168961.13, -168904.06, 0.000, 0.000, 0.000, 20:48:18.375, 1541900898375
208, -152638.81, -105701.75, -169233.95, -169148.52, -168595.52, -131014.23, -168945.45, -168832.58, 0.044, -0.078, 0.990, 20:48:18.375, 1541900898375
209, -152730.05, -105774.17, -169189.11, -169605.05, -168699.98, -131093.22, -168932.41, -168979.55, 0.000, 0.000, 0.000, 20:48:18.375, 1541900898375
210, -152874.33, -105906.12, -169142.69, -169855.80, -168996.38, -131244.95, -168923.45, -169099.92, 0.000, 0.000, 0.000, 20:48:18.375, 1541900898375
211, -153028.22, -106042.13, -169167.70, -169799.30, -169173.84, -131403.28, -168928.20, -169046.38, 0.000, 0.000, 0.000, 20:48:18.375, 1541900898375
212, -153168.14, -106152.16, -169150.44, -169700.42, -169085.83, -131529.59, -168915.44, -168936.98, 0.000, 0.000, 0.000, 20:48:18.376, 1541900898376
213, -153327.48, -106289.94, -169135.00, -169640.66, -169029.86, -131701.77, -168904.34, -168879.97, 0.000, 0.000, 0.000, 20:48:18.376, 1541900898376
214, -153499.89, -106447.99, -169117.47, -169605.30, -168997.56, -131899.30, -168901.05, -168848.52, 0.000, 0.000, 0.000, 20:48:18.376, 1541900898376
215, -153655.55, -106590.80, -169158.39, -169551.59, -168946.42, -132075.53, -168906.11, -168782.59, 0.000, 0.000, 0.000, 20:48:18.376, 1541900898376
216, -153762.66, -106670.68, -169169.33, -169426.70, -168819.13, -132168.75, -168901.89, -168781.70, 0.000, 0.000, 0.000, 20:48:18.376, 1541900898376
217, -153888.25, -106777.32, -169123.84, -169337.69, -168731.06, -132303.97, -168890.78, -168965.86, 0.000, 0.000, 0.000, 20:48:18.376, 1541900898376
218, -154049.42, -106923.66, -169095.67, -169290.81, -168686.23, -132487.53, -168885.58, -169049.30, 0.044, -0.082, 0.996, 20:48:18.376, 1541900898376
219, -154216.89, -107078.29, -169121.19, -169252.92, -168650.48, -132682.41, -168893.95, -169019.08, 0.000, 0.000, 0.000, 20:48:18.376, 1541900898376
220, -154356.16, -107187.72, -169124.20, -169154.17, -168550.00, -132808.30, -168886.02, -168907.52, 0.000, 0.000, 0.000, 20:48:18.376, 1541900898376
221, -154508.94, -107316.51, -169098.70, -169082.97, -168383.44, -132961.06, -168869.72, -168824.08, 0.000, 0.000, 0.000, 20:48:18.377, 1541900898377
222, -154651.20, -107440.63, -169104.94, -169016.05, -168224.23, -133102.27, -168874.05, -168787.88, 0.000, 0.000, 0.000, 20:48:18.377, 1541900898377
223, -154784.58, -107563.56, -169117.00, -168950.81, -168345.48, -133238.16, -168876.23, -168953.48, 0.000, 0.000, 0.000, 20:48:18.377, 1541900898377
224, -154902.59, -107654.18, -169124.78, -168837.50, -168446.97, -133319.86, -168871.83, -168922.83, 0.000, 0.000, 0.000, 20:48:18.788, 1541900898788
225, -155034.47, -107762.34, -169076.22, -168743.42, -168574.30, -133426.63, -168850.19, -168821.94, 0.000, 0.000, 0.000, 20:48:18.789, 1541900898789
226, -155169.53, -107879.53, -169090.69, -168494.33, -168789.73, -133553.41, -168848.83, -168750.38, 0.000, 0.000, 0.000, 20:48:18.789, 1541900898789
227, -155285.61, -107983.93, -169113.38, -168322.88, -169060.47, -133688.70, -168851.48, -168878.20, 0.000, 0.000, 0.000, 20:48:18.790, 1541900898790
228, -155388.03, -108059.59, -169124.09, -168519.81, -168990.94, -133786.50, -168844.45, -168932.05, 0.042, -0.084, 0.996, 20:48:18.790, 1541900898790
229, -155499.88, -108143.01, -169081.02, -168754.86, -168872.94, -133894.19, -168828.33, -168821.63, 0.000, 0.000, 0.000, 20:48:18.790, 1541900898790
230, -155622.16, -108246.77, -169073.53, -169045.19, -168786.08, -134032.88, -168820.50, -168724.02, 0.000, 0.000, 0.000, 20:48:18.791, 1541900898791
231, -155745.66, -108362.04, -169059.45, -169560.84, -168717.16, -134188.47, -168819.81, -168830.77, 0.000, 0.000, 0.000, 20:48:18.791, 1541900898791
232, -155878.88, -108473.57, -169067.56, -169730.64, -168629.25, -134326.41, -168821.98, -168915.84, 0.000, 0.000, 0.000, 20:48:18.791, 1541900898791
233, -156019.78, -108584.57, -169030.28, -169637.55, -168534.86, -134456.09, -168803.09, -168826.13, 0.000, 0.000, 0.000, 20:48:18.791, 1541900898791
234, -156180.55, -108725.81, -169021.78, -169581.66, -168482.03, -134629.61, -168792.75, -168772.25, 0.000, 0.000, 0.000, 20:48:18.791, 1541900898791
235, -156353.86, -108885.76, -169003.70, -169550.63, -168452.17, -134828.72, -168791.97, -168741.78, 0.000, 0.000, 0.000, 20:48:18.791, 1541900898791
236, -156502.13, -109014.80, -169059.56, -169483.69, -168272.63, -134984.50, -168799.94, -168672.27, 0.000, 0.000, 0.000, 20:48:18.791, 1541900898791
237, -156599.83, -109082.55, -169057.02, -169348.91, -168067.95, -135047.72, -168790.11, -168706.36, 0.000, 0.000, 0.000, 20:48:18.792, 1541900898792
238, -156716.75, -109179.26, -169022.48, -169252.13, -168167.88, -135147.05, -168779.94, -168877.89, 0.044, -0.088, 0.994, 20:48:18.792, 1541900898792
239, -156866.34, -109313.57, -168994.47, -169195.53, -168334.61, -135292.17, -168775.53, -168924.84, 0.000, 0.000, 0.000, 20:48:18.792, 1541900898792
240, -157014.34, -109444.55, -169021.14, -169134.69, -168495.53, -135430.69, -168780.92, -168866.06, 0.000, 0.000, 0.000, 20:48:18.793, 1541900898793
241, -157137.41, -109534.52, -169013.02, -169020.52, -168630.63, -135508.91, -168762.84, -168735.41, 0.000, 0.000, 0.000, 20:48:18.793, 1541900898793
242, -157276.97, -109650.44, -168988.44, -168941.44, -168930.86, -135638.06, -168750.59, -168645.56, 0.000, 0.000, 0.000, 20:48:18.793, 1541900898793
243, -157418.45, -109775.59, -168975.14, -168876.75, -168983.55, -135798.27, -168749.63, -168754.97, 0.000, 0.000, 0.000, 20:48:18.793, 1541900898793
244, -157576.42, -109918.16, -168985.13, -168828.91, -168938.14, -135981.44, -168752.69, -168910.20, 0.000, 0.000, 0.000, 20:48:18.793, 1541900898793
245, -157716.11, -110025.88, -168988.55, -168729.56, -168836.73, -136104.03, -168749.23, -168821.25, 0.000, 0.000, 0.000, 20:48:18.793, 1541900898793
246, -157870.50, -110154.34, -168951.94, -168657.47, -168765.77, -136258.44, -168732.98, -168745.88, 0.000, 0.000, 0.000, 20:48:18.793, 1541900898793
247, -158039.92, -110303.33, -168937.78, -168611.66, -168722.06, -136442.47, -168727.88, -168702.00, 0.000, 0.000, 0.000, 20:48:18.794, 1541900898794
248, -158210.09, -110460.69, -168957.75, -168481.09, -168690.64, -136639.77, -168732.11, -168660.02, 0.050, -0.084, 0.998, 20:48:18.794, 1541900898794
249, -158319.13, -110540.34, -169027.03, -168149.53, -168568.48, -136738.33, -168721.59, -168583.42, 0.000, 0.000, 0.000, 20:48:18.794, 1541900898794
250, -158402.98, -110598.75, -168994.69, -168261.95, -168431.44, -136822.64, -168719.20, -168683.52, 0.000, 0.000, 0.000, 20:48:18.794, 1541900898794
251, -158510.36, -110688.52, -168960.27, -168511.97, -168243.34, -136947.70, -168712.61, -168835.50, 0.000, 0.000, 0.000, 20:48:18.812, 1541900898812
252, -158641.67, -110805.44, -168957.88, -168798.41, -168079.44, -137092.47, -168711.03, -168833.16, 0.000, 0.000, 0.000, 20:48:18.812, 1541900898812
253, -158743.17, -110878.59, -168996.77, -169136.38, -168138.36, -137164.77, -168709.16, -168687.97, 0.000, 0.000, 0.000, 20:48:18.812, 1541900898812
254, -158839.73, -110945.63, -168949.47, -169536.72, -168221.33, -137226.91, -168691.72, -168605.39, 0.000, 0.000, 0.000, 20:48:18.812, 1541900898812
255, -158958.78, -111044.45, -168925.66, -169520.00, -168344.23, -137332.06, -168686.13, -168764.50, 0.000, 0.000, 0.000, 20:48:18.812, 1541900898812
0, -159107.52, -111179.49, -168900.34, -169466.39, -168565.66, -137481.75, -168685.56, -168848.95, 0.000, 0.000, 0.000, 20:48:18.813, 1541900898813
1, -159253.06, -111301.16, -168928.13, -169391.39, -168856.73, -137618.50, -168686.80, -168774.94, 0.000, 0.000, 0.000, 20:48:18.813, 1541900898813
2, -159393.50, -111408.84, -168898.47, -169295.28, -168834.33, -137744.28, -168668.45, -168668.20, 0.046, -0.088, 1.004, 20:48:18.813, 1541900898813
3, -159554.30, -111547.41, -168886.28, -169237.70, -168778.59, -137914.02, -168656.69, -168598.63, 0.000, 0.000, 0.000, 20:48:18.814, 1541900898814
4, -159709.72, -111690.26, -168882.84, -169189.00, -168733.25, -138095.31, -168660.52, -168622.98, 0.000, 0.000, 0.000, 20:48:18.814, 1541900898814
5, -159851.36, -111813.34, -168907.48, -169118.92, -168663.16, -138251.09, -168666.30, -168766.86, 0.000, 0.000, 0.000, 20:48:18.814, 1541900898814
6, -159985.83, -111916.90, -168885.64, -169016.95, -168559.44, -138369.63, -168653.16, -168698.42, 0.000, 0.000, 0.000, 20:48:18.814, 1541900898814
7, -160143.16, -112054.70, -168861.95, -168955.58, -168500.45, -138535.17, -168639.06, -168637.27, 0.000, 0.000, 0.000, 20:48:18.814, 1541900898814
8, -160313.20, -112207.85, -168846.95, -168917.00, -168464.58, -138725.34, -168636.95, -168601.06, 0.000, 0.000, 0.000, 20:48:18.814, 1541900898814
9, -160476.06, -112352.42, -168886.72, -168870.11, -168420.08, -138906.45, -168645.94, -168541.16, 0.000, 0.000, 0.000, 20:48:18.815, 1541900898815
10, -160589.77, -112433.16, -168900.61, -168748.69, -168275.58, -139000.55, -168642.00, -168515.30, 0.000, 0.000, 0.000, 20:48:18.815, 1541900898815
11, -160710.92, -112530.95, -168866.50, -168653.45, -168021.98, -139118.45, -168628.28, -168687.98, 0.000, 0.000, 0.000, 20:48:18.815, 1541900898815
12, -160859.75, -112658.78, -168842.97, -168591.63, -168027.16, -139259.08, -168622.36, -168769.09, 0.046, -0.088, 0.994, 20:48:18.815, 1541900898815
13, -161017.95, -112799.77, -168857.30, -168522.14, -168201.05, -139412.16, -168627.28, -168731.39, 0.000, 0.000, 0.000, 20:48:18.815, 1541900898815
14, -161132.73, -112880.87, -168899.13, -168166.45, -168295.94, -139482.19, -168623.59, -168581.81, 0.000, 0.000, 0.000, 20:48:18.815, 1541900898815
15, -161221.09, -112942.35, -168891.81, -168087.81, -168380.53, -139544.16, -168613.42, -168520.39, 0.000, 0.000, 0.000, 20:48:18.815, 1541900898815
16, -161311.73, -113012.18, -168860.77, -168312.25, -168560.25, -139625.91, -168600.81, -168666.25, 0.000, 0.000, 0.000, 20:48:18.815, 1541900898815
17, -161436.19, -113122.09, -168838.92, -168589.41, -168822.61, -139769.34, -168594.55, -168764.34, 0.000, 0.000, 0.000, 20:48:18.815, 1541900898815
18, -161548.55, -113202.22, -168866.59, -168853.47, -168747.44, -139871.83, -168591.42, -168646.63, 0.000, 0.000, 0.000, 20:48:18.816, 1541900898816
19, -161676.47, -113297.57, -168811.09, -169342.95, -168645.73, -139994.53, -168568.84, -168535.09, 0.000, 0.000, 0.000, 20:48:18.816, 1541900898816
20, -161831.25, -113430.77, -168797.91, -169508.11, -168587.45, -140163.30, -168569.30, -168470.95, 0.000, 0.000, 0.000, 20:48:18.816, 1541900898816
21, -161982.06, -113569.92, -168794.98, -169459.08, -168541.13, -140344.16, -168571.80, -168615.11, 0.000, 0.000, 0.000, 20:48:18.816, 1541900898816
22, -162123.83, -113683.70, -168816.70, -169372.39, -168454.50, -140482.59, -168572.47, -168675.17, 0.000, 0.000, 0.000, 20:48:18.816, 1541900898816
23, -162269.17, -113796.26, -168779.67, -169281.91, -168362.88, -140615.42, -168551.58, -168584.19, 0.050, -0.090, 0.990, 20:48:18.816, 1541900898816
24, -162433.05, -113936.83, -168770.23, -169226.27, -168309.92, -140787.78, -168543.14, -168528.95, 0.000, 0.000, 0.000, 20:48:18.816, 1541900898816
25, -162608.91, -114097.31, -168764.27, -169194.56, -168282.14, -140988.47, -168546.50, -168497.97, 0.000, 0.000, 0.000, 20:48:18.816, 1541900898816
26, -162756.36, -114219.29, -168812.19, -169119.81, -168149.98, -141138.20, -168554.81, -168425.50, 0.000, 0.000, 0.000, 20:48:18.817, 1541900898817
27, -162861.44, -114290.55, -168800.55, -168990.05, -167874.48, -141211.09, -168542.67, -168480.97, 0.000, 0.000, 0.000, 20:48:18.817, 1541900898817
28, -162986.50, -114392.42, -168770.39, -168900.66, -167935.69, -141317.84, -168530.84, -168644.28, 0.000, 0.000, 0.000, 20:48:18.817, 1541900898817
29, -163143.48, -114531.84, -168748.38, -168849.91, -168106.81, -141469.38, -168526.41, -168662.09, 0.000, 0.000, 0.000, 20:48:18.817, 1541900898817
30, -163293.34, -114658.66, -168780.83, -168784.19, -168262.30, -141604.05, -168534.63, -168595.67, 0.000, 0.000, 0.000, 20:48:18.817, 1541900898817
31, -163413.39, -114743.64, -168775.48, -168665.09, -168392.25, -141674.72, -168521.73, -168447.13, 0.000, 0.000, 0.000, 20:48:18.817, 1541900898817
32, -163539.02, -114844.29, -168750.72, -168571.98, -168677.08, -141787.59, -168509.48, -168469.94, 0.000, 0.000, 0.000, 20:48:18.817, 1541900898817
33, -163690.20, -114976.37, -168724.86, -168512.75, -168735.14, -141953.33, -168509.23, -168654.56, 0.040, -0.092, 1.000, 20:48:18.817, 1541900898817
34, -163859.73, -115127.82, -168737.27, -168470.66, -168693.89, -142139.52, -168511.73, -168674.94, 0.000, 0.000, 0.000, 20:48:18.817, 1541900898817
35, -164002.25, -115234.41, -168731.22, -168354.81, -168593.33, -142260.09, -168503.17, -168562.95, 0.000, 0.000, 0.000, 20:48:18.817, 1541900898817
36, -164153.50, -115355.38, -168727.59, -168051.63, -168521.28, -142412.22, -168487.78, -168483.27, 0.000, 0.000, 0.000, 20:48:18.818, 1541900898818
37, -164286.67, -115465.66, -168736.84, -168015.83, -168446.89, -142562.66, -168487.20, -168403.38, 0.000, 0.000, 0.000, 20:48:18.818, 1541900898818
38, -164402.91, -115565.29, -168757.66, -168270.44, -168364.28, -142703.67, -168490.70, -168507.67, 0.000, 0.000, 0.000, 20:48:18.818, 1541900898818
39, -164502.39, -115630.29, -168757.59, -168479.98, -168226.00, -142786.89, -168482.75, -168543.59, 0.000, 0.000, 0.000, 20:48:18.818, 1541900898818
40, -164623.25, -115720.25, -168710.94, -168804.08, -168112.19, -142902.30, -168461.88, -168445.48, 0.000, 0.000, 0.000, 20:48:18.818, 1541900898818
41, -164762.38, -115833.87, -168696.41, -169302.52, -167895.91, -143046.13, -168458.00, -168372.05, 0.000, 0.000, 0.000, 20:48:18.818, 1541900898818
42, -164901.64, -115956.95, -168701.81, -169354.92, -167832.20, -143187.80, -168458.81, -168512.64, 0.000, 0.000, 0.000, 20:48:18.818, 1541900898818
43, -165024.75, -116050.12, -168716.23, -169244.70, -167933.44, -143271.70, -168459.27, -168533.28, 0.044, -0.092, 0.996, 20:48:18.818, 1541900898818
44, -165161.77, -116152.16, -168675.52, -169145.23, -168053.81, -143366.83, -168437.20, -168432.69, 0.000, 0.000, 0.000, 20:48:18.818, 1541900898818
45, -165310.95, -116272.88, -168670.17, -169073.78, -168211.11, -143494.16, -168434.97, -168347.61, 0.000, 0.000, 0.000, 20:48:18.819, 1541900898819
46, -165454.20, -116396.62, -168670.84, -169012.08, -168511.78, -143638.97, -168436.58, -168434.06, 0.000, 0.000, 0.000, 20:48:18.819, 1541900898819
47, -165590.39, -116502.34, -168684.86, -168920.44, -168639.19, -143764.36, -168434.83, -168548.22, 0.000, 0.000, 0.000, 20:48:18.819, 1541900898819
48, -165733.73, -116607.57, -168650.92, -168825.31, -168548.73, -143889.27, -168418.69, -168473.41, 0.000, 0.000, 0.000, 20:48:18.819, 1541900898819
49, -165900.31, -116745.93, -168635.64, -168769.88, -168494.86, -144061.44, -168409.41, -168418.44, 0.000, 0.000, 0.000, 20:48:18.819, 1541900898819
50, -166079.95, -116905.48, -168630.86, -168738.81, -168466.23, -144261.00, -168408.70, -168391.20, 0.000, 0.000, 0.000, 20:48:18.819, 1541900898819
51, -166239.19, -117036.45, -168671.91, -168674.23, -168402.47, -144422.31, -168413.70, -168309.28, 0.000, 0.000, 0.000, 20:48:18.819, 1541900898819
52, -166360.98, -117118.89, -168655.75, -168555.38, -168281.45, -144522.16, -168405.88, -168309.48, 0.000, 0.000, 0.000, 20:48:18.819, 1541900898819
53, -166502.30, -117230.36, -168624.30, -168473.91, -168201.72, -144666.77, -168396.56, -168492.66, 0.040, -0.086, 0.996, 20:48:18.820, 1541900898820
54, -166674.63, -117380.98, -168607.27, -168432.86, -168162.92, -144855.89, -168394.69, -168555.23, 0.000, 0.000, 0.000, 20:48:18.820, 1541900898820
55, -166844.19, -117526.07, -168635.44, -168383.70, -168115.06, -145035.13, -168402.44, -168508.36, 0.000, 0.000, 0.000, 20:48:18.820, 1541900898820
56, -166988.38, -117628.82, -168618.45, -168280.17, -167961.55, -145152.09, -168388.34, -168391.47, 0.000, 0.000, 0.000, 20:48:18.820, 1541900898820
57, -167141.05, -117748.47, -168617.27, -168063.41, -167736.94, -145287.16, -168376.63, -168297.95, 0.000, 0.000, 0.000, 20:48:18.820, 1541900898820
58, -167259.73, -117841.97, -168644.84, -167816.16, -167782.06, -145391.28, -168380.45, -168291.67, 0.000, 0.000, 0.000, 20:48:18.820, 1541900898820
59, -167364.98, -117922.59, -168655.69, -168004.33, -167896.44, -145483.88, -168377.86, -168448.39, 0.000, 0.000, 0.000, 20:48:18.820, 1541900898820
60, -167462.08, -117975.50, -168646.05, -168202.06, -167963.05, -145526.55, -168363.44, -168395.44, 0.000, 0.000, 0.000, 20:48:18.820, 1541900898820
61, -167573.28, -118051.70, -168621.08, -168432.33, -168061.39, -145603.44, -168351.25, -168260.00, 0.000, 0.000, 0.000, 20:48:18.821, 1541900898821
62, -167654.02, -118134.80, -168598.27, -168809.72, -168200.02, -145693.84, -168345.42, -168267.61, 0.000, 0.000, 0.000, 20:48:18.821, 1541900898821
63, -167669.11, -118264.46, -168573.70, -169239.64, -168512.03, -145836.66, -168337.38, -168455.23, 0.044, -0.082, 1.006, 20:48:18.821, 1541900898821
64, -167691.14, -118389.12, -168581.83, -169198.66, -168541.05, -145960.48, -168339.66, -168419.81, 0.000, 0.000, 0.000, 20:48:18.821, 1541900898821
65, -167739.17, -118531.34, -168541.38, -169124.73, -168468.58, -146113.33, -168321.91, -168342.14, 0.000, 0.000, 0.000, 20:48:18.821, 1541900898821
66, -167788.75, -118698.31, -168530.38, -169081.94, -168428.38, -146299.30, -168315.80, -168301.83, 0.000, 0.000, 0.000, 20:48:18.821, 1541900898821
67, -167790.67, -118888.74, -168531.52, -169062.23, -168412.44, -146509.95, -168317.61, -168284.89, 0.000, 0.000, 0.000, 20:48:18.821, 1541900898821
68, -167797.92, -119034.52, -168574.17, -168981.17, -168332.53, -146651.28, -168315.83, -168191.39, 0.000, 0.000, 0.000, 20:48:18.821, 1541900898821
69, -167792.44, -119150.69, -168547.50, -168876.34, -168228.13, -146766.48, -168310.17, -168258.81, 0.000, 0.000, 0.000, 20:48:18.821, 1541900898821
70, -167770.98, -119303.21, -168525.16, -168813.80, -168167.86, -146930.47, -168304.81, -168440.14, 0.000, 0.000, 0.000, 20:48:18.822, 1541900898822
71, -167763.52, -119495.51, -168514.84, -168792.09, -168149.22, -147139.72, -168312.81, -168473.98, 0.000, 0.000, 0.000, 20:48:18.822, 1541900898822
72, -167776.13, -119655.90, -168545.63, -168730.42, -168087.27, -147302.44, -168313.28, -168406.52, 0.000, 0.000, 0.000, 20:48:18.822, 1541900898822
73, -167760.14, -119796.63, -168519.88, -168644.11, -168000.94, -147438.34, -168296.50, -168311.36, 0.044, -0.084, 1.002, 20:48:18.822, 1541900898822
74, -167747.73, -119970.91, -168501.34, -168598.27, -167957.94, -147620.73, -168288.22, -168267.44, 0.000, 0.000, 0.000, 20:48:18.822, 1541900898822
75, -167747.16, -120165.66, -168494.95, -168577.52, -167938.91, -147830.39, -168290.38, -168251.34, 0.000, 0.000, 0.000, 20:48:18.822, 1541900898822
76, -167769.30, -120331.95, -168536.59, -168526.05, -167774.16, -148000.86, -168292.20, -168181.84, 0.000, 0.000, 0.000, 20:48:18.823, 1541900898823
77, -167772.48, -120427.38, -168542.81, -168403.05, -167583.97, -148075.20, -168283.39, -168168.39, 0.000, 0.000, 0.000, 20:48:18.823, 1541900898823
78, -167754.84, -120543.63, -168510.94, -168310.44, -167689.69, -148177.36, -168275.86, -168345.83, 0.000, 0.000, 0.000, 20:48:18.823, 1541900898823
79, -167739.39, -120703.57, -168486.33, -168260.33, -167860.95, -148326.70, -168273.92, -168431.23, 0.000, 0.000, 0.000, 20:48:18.824, 1541900898824
80, -167750.23, -120864.41, -168512.67, -168198.80, -168029.91, -148474.91, -168280.59, -168384.78, 0.000, 0.000, 0.000, 20:48:18.824, 1541900898824
81, -167747.06, -120976.29, -168520.19, -167882.22, -168202.66, -148555.56, -168267.77, -168256.70, 0.000, 0.000, 0.000, 20:48:18.824, 1541900898824
82, -167742.17, -121096.14, -168515.97, -167760.63, -168458.44, -148672.78, -168257.22, -168150.06, 0.000, 0.000, 0.000, 20:48:18.824, 1541900898824
83, -167740.30, -121215.43, -168500.03, -168004.22, -168427.56, -148809.34, -168254.66, -168232.77, 0.048, -0.088, 0.998, 20:48:18.824, 1541900898824
84, -167732.41, -121349.23, -168503.45, -168285.70, -168358.78, -148964.56, -168252.02, -168382.23, 0.000, 0.000, 0.000, 20:48:18.824, 1541900898824
85, -167725.00, -121448.52, -168508.67, -168589.72, -168236.45, -149062.50, -168244.50, -168280.11, 0.000, 0.000, 0.000, 20:48:18.824, 1541900898824
86, -167696.66, -121588.03, -168455.61, -169088.22, -168158.78, -149205.80, -168222.16, -168196.56, 0.000, 0.000, 0.000, 20:48:18.825, 1541900898825
87, -167693.17, -121762.69, -168445.95, -169172.55, -168118.17, -149389.94, -168222.75, -168140.91, 0.000, 0.000, 0.000, 20:48:18.825, 1541900898825
88, -167704.78, -121928.74, -168461.38, -169128.14, -168077.30, -149573.78, -168233.23, -168245.31, 0.000, 0.000, 0.000, 20:48:18.825, 1541900898825
89, -167696.70, -122056.99, -168469.97, -169032.64, -167981.02, -149697.56, -168230.20, -168328.86, 0.000, 0.000, 0.000, 20:48:19.268, 1541900899268
90, -167676.45, -122209.48, -168434.83, -168960.16, -167910.30, -149848.70, -168214.17, -168271.58, 0.000, 0.000, 0.000, 20:48:19.268, 1541900899268
91, -167666.33, -122389.95, -168422.75, -168920.08, -167873.47, -150037.23, -168213.66, -168233.53, 0.000, 0.000, 0.000, 20:48:19.268, 1541900899268
92, -167667.06, -122588.79, -168422.58, -168902.38, -167855.00, -150252.27, -168220.31, -168221.88, 0.000, 0.000, 0.000, 20:48:19.269, 1541900899269
93, -167690.25, -122736.24, -168467.48, -168826.72, -167644.89, -150394.28, -168214.28, -168122.50, 0.000, 0.000, 0.000, 20:48:19.269, 1541900899269
94, -167690.97, -122838.74, -168457.66, -168712.81, -167507.81, -150476.05, -168205.30, -168115.13, 0.044, -0.090, 1.002, 20:48:19.270, 1541900899270
95, -167671.66, -122964.01, -168428.48, -168628.45, -167633.19, -150587.61, -168196.27, -168296.45, 0.000, 0.000, 0.000, 20:48:19.270, 1541900899270
96, -167658.59, -123131.77, -168407.69, -168586.48, -167814.70, -150747.58, -168192.05, -168371.80, 0.000, 0.000, 0.000, 20:48:19.271, 1541900899271
97, -167668.75, -123275.99, -168443.17, -168513.08, -167963.45, -150870.67, -168199.70, -168296.61, 0.000, 0.000, 0.000, 20:48:19.273, 1541900899273
98, -167654.95, -123397.54, -168417.34, -168412.63, -168187.39, -150965.23, -168183.92, -168184.17, 0.000, 0.000, 0.000, 20:48:19.274, 1541900899274
99, -167633.81, -123562.77, -168389.59, -168360.63, -168428.14, -151132.03, -168169.92, -168122.69, 0.000, 0.000, 0.000, 20:48:19.275, 1541900899275
100, -167642.30, -123741.29, -168390.30, -168325.64, -168418.42, -151325.11, -168174.72, -168130.86, 0.000, 0.000, 0.000, 20:48:19.277, 1541900899277
101, -167648.06, -123895.13, -168417.03, -168263.39, -168356.70, -151486.58, -168181.25, -168279.59, 0.000, 0.000, 0.000, 20:48:19.278, 1541900899278
102, -167631.28, -124027.77, -168395.59, -168169.20, -168261.78, -151612.25, -168169.98, -168234.11, 0.000, 0.000, 0.000, 20:48:19.279, 1541900899279
103, -167621.22, -124195.38, -168375.13, -168116.97, -168212.05, -151787.47, -168158.67, -168182.31, 0.000, 0.000, 0.000, 20:48:19.280, 1541900899280
104, -167612.86, -124382.96, -168363.66, -168088.00, -168184.89, -151987.45, -168158.69, -168157.52, 0.044, -0.088, 1.002, 20:48:19.281, 1541900899281
105, -167631.47, -124566.31, -168389.91, -168013.97, -168152.61, -152180.75, -168167.45, -168113.95, 0.000, 0.000, 0.000, 20:48:19.282, 1541900899282
106, -167646.84, -124672.08, -168436.02, -167648.52, -168033.72, -152280.08, -168163.39, -168025.64, 0.000, 0.000, 0.000, 20:48:19.282, 1541900899282
107, -167645.31, -124765.04, -168415.81, -167668.14, -167919.70, -152385.22, -168155.00, -168150.02, 0.000, 0.000, 0.000, 20:48:19.282, 1541900899282
108, -167617.22, -124892.31, -168371.33, -167941.30, -167843.11, -152532.05, -168141.63, -168290.06, 0.000, 0.000, 0.000, 20:48:19.282, 1541900899282
109, -167618.61, -125044.55, -168386.09, -168241.75, -167756.81, -152703.14, -168143.20, -168268.73, 0.000, 0.000, 0.000, 20:48:19.282, 1541900899282
110, -167619.28, -125140.87, -168404.75, -168588.47, -167472.78, -152787.36, -168136.66, -168127.06, 0.000, 0.000, 0.000, 20:48:19.283, 1541900899283
111, -167603.20, -125249.91, -168367.69, -169006.70, -167471.52, -152879.13, -168123.58, -168027.53, 0.000, 0.000, 0.000, 20:48:19.283, 1541900899283
112, -167592.86, -125377.05, -168349.84, -168994.06, -167610.08, -152993.81, -168117.23, -168158.88, 0.000, 0.000, 0.000, 20:48:19.283, 1541900899283
113, -167580.52, -125539.09, -168333.47, -168947.83, -167788.14, -153148.53, -168116.03, -168297.83, 0.000, 0.000, 0.000, 20:48:19.286, 1541900899286
114, -167586.92, -125665.50, -168364.28, -168852.16, -167924.61, -153245.98, -168115.33, -168207.06, 0.048, -0.088, 0.998, 20:48:19.286, 1541900899286
115, -167560.56, -125801.36, -168319.61, -168767.11, -168208.84, -153360.91, -168095.44, -168115.75, 0.000, 0.000, 0.000, 20:48:19.286, 1541900899286
116, -167551.48, -125976.91, -168308.98, -168724.33, -168367.03, -153541.38, -168093.63, -168074.66, 0.000, 0.000, 0.000, 20:48:19.286, 1541900899286
117, -167557.48, -126172.22, -168306.13, -168705.53, -168356.23, -153753.89, -168104.22, -168059.05, 0.000, 0.000, 0.000, 20:48:19.286, 1541900899286
118, -167573.23, -126321.48, -168349.56, -168631.81, -168281.70, -153902.81, -168099.00, -167973.64, 0.000, 0.000, 0.000, 20:48:19.286, 1541900899286
119, -167563.64, -126433.80, -168327.61, -168524.08, -168172.11, -154013.48, -168089.00, -168033.56, 0.000, 0.000, 0.000, 20:48:19.287, 1541900899287
120, -167539.50, -126581.57, -168304.36, -168458.88, -168108.27, -154173.66, -168080.91, -168214.39, 0.000, 0.000, 0.000, 20:48:19.287, 1541900899287
121, -167532.72, -126773.32, -168284.25, -168435.78, -168088.36, -154382.33, -168084.78, -168251.91, 0.000, 0.000, 0.000, 20:48:19.287, 1541900899287
122, -167544.17, -126942.64, -168315.20, -168381.88, -168035.61, -154555.02, -168085.94, -168194.75, 0.000, 0.000, 0.000, 20:48:19.287, 1541900899287
123, -167529.36, -127083.84, -168291.94, -168294.19, -167947.30, -154689.00, -168069.27, -168096.20, 0.000, 0.000, 0.000, 20:48:19.287, 1541900899287
124, -167524.33, -127257.80, -168282.23, -168247.31, -167902.61, -154869.59, -168061.89, -168049.95, 0.044, -0.088, 0.998, 20:48:19.287, 1541900899287
125, -167516.75, -127450.85, -168274.30, -168223.67, -167882.20, -155076.02, -168061.95, -168030.47, 0.000, 0.000, 0.000, 20:48:19.287, 1541900899287
126, -167536.20, -127626.16, -168305.36, -168180.47, -167841.55, -155260.63, -168064.13, -167972.06, 0.000, 0.000, 0.000, 20:48:19.287, 1541900899287
127, -167539.19, -127734.85, -168311.95, -168068.19, -167719.28, -155365.78, -168061.00, -167937.34, 0.000, 0.000, 0.000, 20:48:19.288, 1541900899288
128, -167524.03, -127861.80, -168282.03, -167984.47, -167494.67, -155498.67, -168052.14, -168116.50, 0.000, 0.000, 0.000, 20:48:19.288, 1541900899288
129, -167512.27, -128020.77, -168252.38, -167934.73, -167448.13, -155654.30, -168045.86, -168202.28, 0.000, 0.000, 0.000, 20:48:19.288, 1541900899288
130, -167521.84, -128185.38, -168281.66, -167774.11, -167618.72, -155808.28, -168049.66, -168163.80, 0.000, 0.000, 0.000, 20:48:19.288, 1541900899288
131, -167533.50, -128280.32, -168323.25, -167461.14, -167712.38, -155874.58, -168043.22, -168018.89, 0.000, 0.000, 0.000, 20:48:19.288, 1541900899288
132, -167526.75, -128371.00, -168309.53, -167614.50, -167814.92, -155952.91, -168039.25, -167911.66, 0.000, 0.000, 0.000, 20:48:19.288, 1541900899288
133, -167520.06, -128467.07, -168283.69, -167856.25, -168028.83, -156046.59, -168031.89, -168022.80, 0.000, 0.000, 0.000, 20:48:19.289, 1541900899289
134, -167511.03, -128595.37, -168277.16, -168135.22, -168257.88, -156190.45, -168030.47, -168165.41, 0.036, -0.090, 0.996, 20:48:19.289, 1541900899289
135, -167499.03, -128698.37, -168283.23, -168499.48, -168166.55, -156293.88, -168022.13, -168064.23, 0.000, 0.000, 0.000, 20:48:19.290, 1541900899290
136, -167464.14, -128839.07, -168225.84, -168930.44, -168086.92, -156439.88, -167998.59, -167979.28, 0.000, 0.000, 0.000, 20:48:19.290, 1541900899290
137, -167465.36, -129014.02, -168218.98, -168946.64, -168044.86, -156623.36, -167997.89, -167923.02, 0.000, 0.000, 0.000, 20:48:19.290, 1541900899290
138, -167475.48, -129183.73, -168229.92, -168905.05, -168007.86, -156809.84, -168006.48, -168030.22, 0.000, 0.000, 0.000, 20:48:19.290, 1541900899290
139, -167467.22, -129317.55, -168243.91, -168816.66, -167918.66, -156942.25, -168005.70, -168107.44, 0.000, 0.000, 0.000, 20:48:19.290, 1541900899290
140, -167443.17, -129467.27, -168206.58, -168740.89, -167844.00, -157090.47, -167990.55, -168041.50, 0.000, 0.000, 0.000, 20:48:19.290, 1541900899290
141, -167439.34, -129645.23, -168197.09, -168698.63, -167805.30, -157276.69, -167987.03, -168002.36, 0.000, 0.000, 0.000, 20:48:19.290, 1541900899290
142, -167442.97, -129840.38, -168190.20, -168680.94, -167791.83, -157490.52, -167991.09, -167989.67, 0.000, 0.000, 0.000, 20:48:19.290, 1541900899290
143, -167459.52, -129993.74, -168238.42, -168613.70, -167725.41, -157649.44, -167989.02, -167901.00, 0.000, 0.000, 0.000, 20:48:19.291, 1541900899291
144, -167453.30, -130105.37, -168221.81, -168506.00, -167599.77, -157760.16, -167978.98, -167905.67, 0.034, -0.080, 0.996, 20:48:19.291, 1541900899291
145, -167440.20, -130243.81, -168201.30, -168433.05, -167372.20, -157902.91, -167973.67, -168088.11, 0.000, 0.000, 0.000, 20:48:19.292, 1541900899292
146, -167433.02, -130415.02, -168179.53, -168395.05, -167392.03, -158068.98, -167970.58, -168131.56, 0.000, 0.000, 0.000, 20:48:19.292, 1541900899292
147, -167445.81, -130565.74, -168224.13, -168328.61, -167545.19, -158200.80, -167976.17, -168063.67, 0.000, 0.000, 0.000, 20:48:19.292, 1541900899292
148, -167428.48, -130687.13, -168202.13, -168224.91, -167660.03, -158289.69, -167960.33, -167945.09, 0.000, 0.000, 0.000, 20:48:19.292, 1541900899292
149, -167423.13, -130832.16, -168185.05, -168155.72, -167870.17, -158419.73, -167953.95, -167865.53, 0.000, 0.000, 0.000, 20:48:19.292, 1541900899292
150, -167417.91, -130986.16, -168165.33, -168101.20, -168178.09, -158579.86, -167946.63, -167984.33, 0.000, 0.000, 0.000, 20:48:19.292, 1541900899292
151, -167422.06, -131148.88, -168195.39, -168050.72, -168196.25, -158755.78, -167959.89, -168106.69, 0.000, 0.000, 0.000, 20:48:19.292, 1541900899292
152, -167405.91, -131281.11, -168181.19, -167956.67, -168099.47, -158881.36, -167950.31, -168011.91, 0.000, 0.000, 0.000, 20:48:19.292, 1541900899292
153, -167390.44, -131447.72, -168149.02, -167903.02, -168047.63, -159054.81, -167934.06, -167958.41, 0.000, 0.000, 0.000, 20:48:19.293, 1541900899293
154, -167388.45, -131633.05, -168137.11, -167872.80, -168019.22, -159254.88, -167937.61, -167930.94, 0.040, -0.080, 0.994, 20:48:19.293, 1541900899293
155, -167397.23, -131821.95, -168157.95, -167824.67, -167993.61, -159459.06, -167942.94, -167898.50, 0.000, 0.000, 0.000, 20:48:19.293, 1541900899293
156, -167419.23, -131936.31, -168204.72, -167480.78, -167883.55, -159569.56, -167939.25, -167800.28, 0.000, 0.000, 0.000, 20:48:19.293, 1541900899293
157, -167415.14, -132027.39, -168189.97, -167419.56, -167769.44, -159674.02, -167928.81, -167905.00, 0.000, 0.000, 0.000, 20:48:19.293, 1541900899293
158, -167394.17, -132145.77, -168155.44, -167678.83, -167687.00, -159814.39, -167918.08, -168059.45, 0.000, 0.000, 0.000, 20:48:19.293, 1541900899293
159, -167391.69, -132296.42, -168158.50, -167979.13, -167632.88, -159988.73, -167919.84, -168056.14, 0.000, 0.000, 0.000, 20:48:19.293, 1541900899293
160, -167388.16, -132399.03, -168176.36, -168318.58, -167402.58, -160089.00, -167911.78, -167927.69, 0.000, 0.000, 0.000, 20:48:19.293, 1541900899293
161, -167374.03, -132512.95, -168139.73, -168763.56, -167241.47, -160192.31, -167896.95, -167808.05, 0.000, 0.000, 0.000, 20:48:19.293, 1541900899293
162, -167373.23, -132639.41, -168133.48, -168768.83, -167362.23, -160310.23, -167896.38, -167869.28, 0.000, 0.000, 0.000, 20:48:19.294, 1541900899294
163, -167359.67, -132792.78, -168115.89, -168716.89, -167535.02, -160459.69, -167893.20, -168052.52, 0.000, 0.000, 0.000, 20:48:19.294, 1541900899294
164, -167362.23, -132922.44, -168143.88, -168626.11, -167673.03, -160564.58, -167897.53, -167995.38, 0.000, 0.000, 0.000, 20:48:19.294, 1541900899294
165, -167333.16, -133053.69, -168100.02, -168535.83, -167940.25, -160675.39, -167877.02, -167897.61, 0.040, -0.086, 0.998, 20:48:19.294, 1541900899294
166, -167327.25, -133225.63, -168084.22, -168490.14, -168127.52, -160853.34, -167865.70, -167854.13, 0.000, 0.000, 0.000, 20:48:19.294, 1541900899294
167, -167330.00, -133421.47, -168084.27, -168470.55, -168121.09, -161066.33, -167870.31, -167837.98, 0.000, 0.000, 0.000, 20:48:19.294, 1541900899294
168, -167344.42, -133572.45, -168126.84, -168401.69, -168052.03, -161222.61, -167875.61, -167755.52, 0.000, 0.000, 0.000, 20:48:19.294, 1541900899294
169, -167338.25, -133679.03, -168108.45, -168290.92, -167939.30, -161330.03, -167863.16, -167804.08, 0.000, 0.000, 0.000, 20:48:19.294, 1541900899294
170, -167314.14, -133824.92, -168076.84, -168225.70, -167874.83, -161491.17, -167857.03, -167985.89, 0.000, 0.000, 0.000, 20:48:19.294, 1541900899294
171, -167308.66, -134011.64, -168061.83, -168200.30, -167852.81, -161697.45, -167867.78, -168020.27, 0.000, 0.000, 0.000, 20:48:19.295, 1541900899295
172, -167319.81, -134184.47, -168092.98, -168154.98, -167809.69, -161879.63, -167867.11, -167973.84, 0.000, 0.000, 0.000, 20:48:19.295, 1541900899295
173, -167311.31, -134322.33, -168080.52, -168065.88, -167719.23, -162011.16, -167852.19, -167872.34, 0.000, 0.000, 0.000, 20:48:19.295, 1541900899295
174, -167299.19, -134491.33, -168058.31, -168015.75, -167671.92, -162189.97, -167838.84, -167822.72, 0.000, 0.000, 0.000, 20:48:19.295, 1541900899295
175, -167295.33, -134679.72, -168048.44, -167989.00, -167649.14, -162394.25, -167840.19, -167799.55, 0.044, -0.086, 1.004, 20:48:19.295, 1541900899295
176, -167311.14, -134855.09, -168085.31, -167948.59, -167610.56, -162582.92, -167849.34, -167745.19, 0.000, 0.000, 0.000, 20:48:19.295, 1541900899295
177, -167315.44, -134960.91, -168094.14, -167834.08, -167484.55, -162685.69, -167843.42, -167735.08, 0.000, 0.000, 0.000, 20:48:19.295, 1541900899295
178, -167299.56, -135088.27, -168056.88, -167750.63, -167256.42, -162819.73, -167830.84, -167915.17, 0.000, 0.000, 0.000, 20:48:19.295, 1541900899295
179, -167284.83, -135249.42, -168025.80, -167700.75, -167220.38, -162975.03, -167832.25, -167968.50, 0.000, 0.000, 0.000, 20:48:19.296, 1541900899296
180, -167297.66, -135418.47, -168058.42, -167537.30, -167398.56, -163136.03, -167835.23, -167932.92, 0.000, 0.000, 0.000, 20:48:19.296, 1541900899296
181, -167315.11, -135510.86, -168114.59, -167233.84, -167491.05, -163203.20, -167830.53, -167779.14, 0.000, 0.000, 0.000, 20:48:19.296, 1541900899296
182, -167302.73, -135587.27, -168089.63, -167380.50, -167578.00, -163268.36, -167819.80, -167742.03, 0.000, 0.000, 0.000, 20:48:19.296, 1541900899296
183, -167291.05, -135679.47, -168063.61, -167619.64, -167778.84, -163361.88, -167808.11, -167896.47, 0.000, 0.000, 0.000, 20:48:19.297, 1541900899297
184, -167279.75, -135814.36, -168042.17, -167908.48, -168034.39, -163516.45, -167802.81, -167954.78, 0.000, 0.000, 0.000, 20:48:19.297, 1541900899297
185, -167271.11, -135922.20, -168057.17, -168298.30, -167958.00, -163629.56, -167795.41, -167837.59, 0.040, -0.086, 1.004, 20:48:19.297, 1541900899297
186, -167242.70, -136058.28, -168006.53, -168700.92, -167876.48, -163774.64, -167775.72, -167745.39, 0.000, 0.000, 0.000, 20:48:19.297, 1541900899297
187, -167241.83, -136221.09, -167998.67, -168697.42, -167828.58, -163954.23, -167779.25, -167698.88, 0.000, 0.000, 0.000, 20:48:19.297, 1541900899297
188, -167235.91, -136392.55, -167991.73, -168658.70, -167795.30, -164148.56, -167780.75, -167861.27, 0.000, 0.000, 0.000, 20:48:19.297, 1541900899297
189, -167242.30, -136538.53, -168022.95, -168581.41, -167719.69, -164298.86, -167783.13, -167883.98, 0.000, 0.000, 0.000, 20:48:19.297, 1541900899297
190, -167226.17, -136682.19, -167989.53, -168500.94, -167639.70, -164444.95, -167767.86, -167797.69, 0.000, 0.000, 0.000, 20:48:19.297, 1541900899297
191, -167217.28, -136856.39, -167974.19, -168456.36, -167597.55, -164632.78, -167762.06, -167755.09, 0.000, 0.000, 0.000, 20:48:19.297, 1541900899297
192, -167215.39, -137050.28, -167967.91, -168436.08, -167580.23, -164845.55, -167765.39, -167739.08, 0.000, 0.000, 0.000, 20:48:19.298, 1541900899298
193, -167235.72, -137205.98, -168023.11, -168372.72, -167517.73, -165008.97, -167768.17, -167658.19, 0.000, 0.000, 0.000, 20:48:19.298, 1541900899298
194, -167229.52, -137311.95, -168002.92, -168260.28, -167394.83, -165116.95, -167761.06, -167675.06, 0.000, 0.000, 0.000, 20:48:19.298, 1541900899298
195, -167211.52, -137447.44, -167975.95, -168185.34, -167177.20, -165263.25, -167750.22, -167864.55, 0.038, -0.088, 0.998, 20:48:19.298, 1541900899298
196, -167202.98, -137617.42, -167957.39, -168146.11, -167153.58, -165432.31, -167749.48, -167917.41, 0.000, 0.000, 0.000, 20:48:19.298, 1541900899298
197, -167217.22, -137772.22, -167997.81, -168086.28, -167311.31, -165573.78, -167754.78, -167857.50, 0.000, 0.000, 0.000, 20:48:19.299, 1541900899299
198, -167204.63, -137888.47, -167982.30, -167979.20, -167423.44, -165661.38, -167738.17, -167737.83, 0.000, 0.000, 0.000, 20:48:19.299, 1541900899299
199, -167198.19, -138032.50, -167962.25, -167908.84, -167618.78, -165792.58, -167728.58, -167650.84, 0.000, 0.000, 0.000, 20:48:19.299, 1541900899299
200, -167199.73, -138178.08, -167955.92, -167849.28, -167933.30, -165945.64, -167733.19, -167709.14, 0.000, 0.000, 0.000, 20:48:19.299, 1541900899299
201, -167192.81, -138338.66, -167965.38, -167800.16, -167975.08, -166125.28, -167735.84, -167870.77, 0.000, 0.000, 0.000, 20:48:19.299, 1541900899299
202, -167179.53, -138470.89, -167958.94, -167707.30, -167879.47, -166256.00, -167726.25, -167795.19, 0.000, 0.000, 0.000, 20:48:19.299, 1541900899299
203, -167164.31, -138634.34, -167920.11, -167651.84, -167825.91, -166431.47, -167709.73, -167738.02, 0.000, 0.000, 0.000, 20:48:19.299, 1541900899299
204, -167165.86, -138815.97, -167916.78, -167619.89, -167796.38, -166634.39, -167711.25, -167709.33, 0.000, 0.000, 0.000, 20:48:19.299, 1541900899299
205, -167172.95, -139004.53, -167932.41, -167560.09, -167775.88, -166777.36, -167718.34, -167683.88, 0.044, -0.088, 0.998, 20:48:19.300, 1541900899300
206, -167189.98, -139124.34, -167985.27, -167212.56, -167672.45, -166710.33, -167714.67, -167581.33, 0.000, 0.000, 0.000, 20:48:19.300, 1541900899300
207, -167180.92, -139223.20, -167957.13, -167222.89, -167562.48, -166643.30, -167703.39, -167675.61, 0.000, 0.000, 0.000, 20:48:19.300, 1541900899300
208, -167165.61, -139354.25, -167928.42, -167497.39, -167488.75, -166668.22, -167696.22, -167841.67, 0.000, 0.000, 0.000, 20:48:19.300, 1541900899300
209, -167159.11, -139520.98, -167923.58, -167817.72, -167452.11, -166747.05, -167699.48, -167857.77, 0.000, 0.000, 0.000, 20:48:19.748, 1541900899748
210, -167156.89, -139649.94, -167945.91, -168250.66, -167359.23, -166765.16, -167696.22, -167754.91, 0.000, 0.000, 0.000, 20:48:19.748, 1541900899748
211, -167126.27, -139803.97, -167896.48, -168621.31, -167262.81, -166809.41, -167677.47, -167680.30, 0.000, 0.000, 0.000, 20:48:19.748, 1541900899748
212, -167126.69, -139988.97, -167896.11, -168617.31, -167078.69, -166888.02, -167676.34, -167648.38, 0.000, 0.000, 0.000, 20:48:19.748, 1541900899748
213, -167132.45, -140177.78, -167896.28, -168592.36, -167169.83, -166971.27, -167682.94, -167624.16, 0.000, 0.000, 0.000, 20:48:19.749, 1541900899749
214, -167157.45, -140310.28, -167941.08, -168507.20, -167323.16, -166986.84, -167682.25, -167544.52, 0.000, 0.000, 0.000, 20:48:19.749, 1541900899749
215, -167143.56, -140406.81, -167916.20, -168389.36, -167451.94, -166967.39, -167670.42, -167628.59, 0.040, -0.084, 0.996, 20:48:19.749, 1541900899749
216, -167115.38, -140550.06, -167879.75, -168321.70, -167767.69, -167006.66, -167660.52, -167804.47, 0.000, 0.000, 0.000, 20:48:19.749, 1541900899749
217, -167101.41, -140749.67, -167866.88, -168308.73, -167958.89, -167111.61, -167667.17, -167847.77, 0.000, 0.000, 0.000, 20:48:19.749, 1541900899749
218, -167111.20, -140932.38, -167886.86, -168269.33, -167924.97, -167187.75, -167669.39, -167805.45, 0.000, 0.000, 0.000, 20:48:19.749, 1541900899749
219, -167098.69, -141088.23, -167874.48, -168196.14, -167850.55, -167225.95, -167652.42, -167721.63, 0.000, 0.000, 0.000, 20:48:19.749, 1541900899749
220, -167089.56, -141277.08, -167855.88, -168163.45, -167820.67, -167311.78, -167647.31, -167690.89, 0.000, 0.000, 0.000, 20:48:19.749, 1541900899749
221, -167096.42, -141483.25, -167856.81, -168152.50, -167812.84, -167420.23, -167661.03, -167685.11, 0.000, 0.000, 0.000, 20:48:19.750, 1541900899750
222, -167104.78, -141675.14, -167880.73, -168124.83, -167787.75, -167509.88, -167663.53, -167650.53, 0.000, 0.000, 0.000, 20:48:19.750, 1541900899750
223, -167107.72, -141811.67, -167888.22, -168036.36, -167696.69, -167526.52, -167650.27, -167567.02, 0.000, 0.000, 0.000, 20:48:19.750, 1541900899750
224, -167090.89, -141964.86, -167857.48, -167974.16, -167635.78, -167463.02, -167639.89, -167726.39, 0.000, 0.000, 0.000, 20:48:19.750, 1541900899750
225, -167072.44, -142169.55, -167841.02, -167959.77, -167623.34, -167333.45, -167646.42, -167835.94, 0.000, 0.000, 0.000, 20:48:19.750, 1541900899750
226, -167086.41, -142386.89, -167857.70, -167955.36, -167622.63, -167351.34, -167661.09, -167839.44, 0.044, -0.086, 1.000, 20:48:19.750, 1541900899750
227, -167083.63, -142551.52, -167862.11, -167889.63, -167556.00, -167419.67, -167648.58, -167761.06, 0.000, 0.000, 0.000, 20:48:19.750, 1541900899750
228, -167069.53, -142741.05, -167832.77, -167855.56, -167524.58, -167321.80, -167639.89, -167726.30, 0.000, 0.000, 0.000, 20:48:19.750, 1541900899750
229, -167068.20, -142954.94, -167842.86, -167847.41, -167519.64, -167318.61, -167650.27, -167722.05, 0.000, 0.000, 0.000, 20:48:19.750, 1541900899750
230, -167077.25, -143177.77, -167854.23, -167850.55, -167526.41, -167334.41, -167668.88, -167732.78, 0.000, 0.000, 0.000, 20:48:19.751, 1541900899751
231, -167083.95, -143349.47, -167863.31, -167791.66, -167466.64, -167426.20, -167644.25, -167663.48, 0.000, 0.000, 0.000, 20:48:19.751, 1541900899751
232, -167075.42, -143528.19, -167839.17, -167746.27, -167423.09, -167350.59, -167629.27, -167614.56, 0.000, 0.000, 0.000, 20:48:19.751, 1541900899751
233, -167068.59, -143737.48, -167841.48, -167733.05, -167412.70, -167317.17, -167635.48, -167603.03, 0.000, 0.000, 0.000, 20:48:19.751, 1541900899751
234, -167070.50, -143964.05, -167850.48, -167740.30, -167422.98, -167318.47, -167656.92, -167614.34, 0.000, 0.000, 0.000, 20:48:19.751, 1541900899751
235, -167092.61, -144136.06, -167871.25, -167685.42, -167367.83, -167424.91, -167644.09, -167540.27, 0.000, 0.000, 0.000, 20:48:19.751, 1541900899751
236, -167080.41, -144278.73, -167850.42, -167609.41, -167291.58, -167396.52, -167629.70, -167621.81, 0.042, -0.084, 0.998, 20:48:19.751, 1541900899751
237, -167061.53, -144464.23, -167828.38, -167576.81, -167261.78, -167318.63, -167624.88, -167803.02, 0.000, 0.000, 0.000, 20:48:19.751, 1541900899751
238, -167059.53, -144686.22, -167837.05, -167582.06, -167271.00, -167298.58, -167642.41, -167842.75, 0.000, 0.000, 0.000, 20:48:19.752, 1541900899752
239, -167075.22, -144873.25, -167847.77, -167543.03, -167144.34, -167391.09, -167640.25, -167798.36, 0.000, 0.000, 0.000, 20:48:19.752, 1541900899752
240, -167078.03, -145020.44, -167839.53, -167415.19, -166979.81, -167440.89, -167624.08, -167710.75, 0.000, 0.000, 0.000, 20:48:19.752, 1541900899752
241, -167085.52, -145171.27, -167862.28, -167109.66, -167129.28, -167439.81, -167620.89, -167649.75, 0.000, 0.000, 0.000, 20:48:19.752, 1541900899752
242, -167084.89, -145321.03, -167848.45, -167225.91, -167322.83, -167382.19, -167617.42, -167597.78, 0.000, 0.000, 0.000, 20:48:19.752, 1541900899752
243, -167101.39, -145438.81, -167902.31, -167483.36, -167499.83, -167470.16, -167616.73, -167494.48, 0.000, 0.000, 0.000, 20:48:19.752, 1541900899752
244, -167094.81, -145506.92, -167881.89, -167681.63, -167744.83, -167479.97, -167606.45, -167494.69, 0.000, 0.000, 0.000, 20:48:19.752, 1541900899752
245, -167067.92, -145617.09, -167843.64, -168080.02, -167790.98, -167469.36, -167600.73, -167674.95, 0.000, 0.000, 0.000, 20:48:19.753, 1541900899753
246, -167026.11, -145803.58, -167804.63, -168535.88, -167766.91, -167321.38, -167610.47, -167785.13, 0.044, -0.088, 0.994, 20:48:19.753, 1541900899753
247, -167032.77, -146013.48, -167809.83, -168569.92, -167756.00, -167309.75, -167615.97, -167779.44, 0.000, 0.000, 0.000, 20:48:19.753, 1541900899753
248, -167024.55, -146177.47, -167801.05, -168502.16, -167687.67, -167354.52, -167590.73, -167699.75, 0.000, 0.000, 0.000, 20:48:19.753, 1541900899753
249, -167014.31, -146370.66, -167784.42, -168471.48, -167660.73, -167272.97, -167581.03, -167671.31, 0.000, 0.000, 0.000, 20:48:19.753, 1541900899753
250, -167022.58, -146580.64, -167799.09, -168463.30, -167656.56, -167284.31, -167600.73, -167668.20, 0.000, 0.000, 0.000, 20:48:19.753, 1541900899753
251, -167023.25, -146798.55, -167802.23, -168461.98, -167659.06, -167288.14, -167614.58, -167672.48, 0.000, 0.000, 0.000, 20:48:19.753, 1541900899753
252, -167029.91, -146968.84, -167807.53, -168400.42, -167597.64, -167357.94, -167593.17, -167600.44, 0.000, 0.000, 0.000, 20:48:19.753, 1541900899753
253, -167010.83, -147156.42, -167775.92, -168364.02, -167563.78, -167261.92, -167580.81, -167562.80, 0.000, 0.000, 0.000, 20:48:19.754, 1541900899754
254, -167012.91, -147368.98, -167778.14, -168356.95, -167559.31, -167255.19, -167584.45, -167557.91, 0.000, 0.000, 0.000, 20:48:19.754, 1541900899754
255, -167023.09, -147591.22, -167794.50, -168360.58, -167567.47, -167274.92, -167604.97, -167564.89, 0.000, 0.000, 0.000, 20:48:19.754, 1541900899754
0, -167041.02, -147750.88, -167823.94, -168291.78, -167497.39, -167401.75, -167594.31, -167482.08, 0.044, -0.090, 0.990, 20:48:19.754, 1541900899754
1, -167022.27, -147895.97, -167796.78, -168217.08, -167424.11, -167341.73, -167577.38, -167596.28, 0.000, 0.000, 0.000, 20:48:19.754, 1541900899754
2, -167006.22, -148086.09, -167774.11, -168189.61, -167399.88, -167285.91, -167576.23, -167744.36, 0.000, 0.000, 0.000, 20:48:19.756, 1541900899756
3, -167010.42, -148308.89, -167778.61, -168196.36, -167410.73, -167266.50, -167596.22, -167771.41, 0.000, 0.000, 0.000, 20:48:19.757, 1541900899757
4, -167021.22, -148491.06, -167804.06, -168151.20, -167365.66, -167341.78, -167590.45, -167719.64, 0.000, 0.000, 0.000, 20:48:19.757, 1541900899757
5, -167003.64, -148664.44, -167772.41, -168097.88, -167313.13, -167283.78, -167572.56, -167659.63, 0.000, 0.000, 0.000, 20:48:19.757, 1541900899757
6, -167001.14, -148867.80, -167771.92, -168081.73, -167298.22, -167258.19, -167574.63, -167645.55, 0.000, 0.000, 0.000, 20:48:19.757, 1541900899757
7, -167005.45, -149089.33, -167780.33, -168087.23, -167307.98, -167250.19, -167595.70, -167658.03, 0.000, 0.000, 0.000, 20:48:19.757, 1541900899757
8, -167019.92, -149278.59, -167801.02, -168052.17, -167274.66, -167323.88, -167588.77, -167619.06, 0.000, 0.000, 0.000, 20:48:19.758, 1541900899758
9, -167006.95, -149445.88, -167778.38, -167990.88, -167213.33, -167290.53, -167564.25, -167549.23, 0.000, 0.000, 0.000, 20:48:19.758, 1541900899758
10, -166993.09, -149648.88, -167759.72, -167971.95, -167197.02, -167231.36, -167559.48, -167532.64, 0.042, -0.088, 0.998, 20:48:19.758, 1541900899758
11, -166994.48, -149869.63, -167768.48, -167976.02, -167204.94, -167232.30, -167582.67, -167542.19, 0.000, 0.000, 0.000, 20:48:19.758, 1541900899758
12, -167019.77, -150067.13, -167802.67, -167952.59, -167110.23, -167319.78, -167589.00, -167503.28, 0.000, 0.000, 0.000, 20:48:19.758, 1541900899758
13, -167040.30, -150185.91, -167818.92, -167851.56, -166891.69, -167454.84, -167574.06, -167468.27, 0.000, 0.000, 0.000, 20:48:19.758, 1541900899758
14, -167018.70, -150316.08, -167791.36, -167772.45, -166999.47, -167402.17, -167561.50, -167646.73, 0.000, 0.000, 0.000, 20:48:19.759, 1541900899759
15, -167007.22, -150490.02, -167766.20, -167735.63, -167216.05, -167280.09, -167565.02, -167727.27, 0.000, 0.000, 0.000, 20:48:19.759, 1541900899759
16, -167008.14, -150671.63, -167784.19, -167702.77, -167560.03, -167317.05, -167568.58, -167699.88, 0.000, 0.000, 0.000, 20:48:19.759, 1541900899759
17, -166994.17, -150820.95, -167777.55, -167625.92, -167751.36, -167353.11, -167555.84, -167608.89, 0.000, 0.000, 0.000, 20:48:19.759, 1541900899759
18, -166978.20, -151011.83, -167748.19, -167593.89, -167734.81, -167234.72, -167543.89, -167576.67, 0.000, 0.000, 0.000, 20:48:19.759, 1541900899759
19, -166978.33, -151225.81, -167751.61, -167587.27, -167730.81, -167228.84, -167555.23, -167573.95, 0.000, 0.000, 0.000, 20:48:19.759, 1541900899759
20, -166982.55, -151446.19, -167763.84, -167588.88, -167736.38, -167244.22, -167572.16, -167580.00, 0.042, -0.086, 0.998, 20:48:19.759, 1541900899759
21, -166997.61, -151609.89, -167775.56, -167521.77, -167668.08, -167344.08, -167553.50, -167487.58, 0.000, 0.000, 0.000, 20:48:19.759, 1541900899759
22, -166989.11, -151766.11, -167757.56, -167458.69, -167605.52, -167290.11, -167540.27, -167571.63, 0.000, 0.000, 0.000, 20:48:19.759, 1541900899759
23, -166972.69, -151957.61, -167736.72, -167433.77, -167582.78, -167248.33, -167548.69, -167719.58, 0.000, 0.000, 0.000, 20:48:19.760, 1541900899760
24, -166974.28, -152178.25, -167741.70, -167432.83, -167589.27, -167233.56, -167567.94, -167743.25, 0.000, 0.000, 0.000, 20:48:19.760, 1541900899760
25, -166991.48, -152347.14, -167778.42, -167190.97, -167528.39, -167349.83, -167555.00, -167672.28, 0.000, 0.000, 0.000, 20:48:19.760, 1541900899760
26, -166993.77, -152490.53, -167769.30, -167044.33, -167454.50, -167315.36, -167539.64, -167591.50, 0.000, 0.000, 0.000, 20:48:19.760, 1541900899760
27, -166980.75, -152653.73, -167751.33, -167322.31, -167407.36, -167281.92, -167533.11, -167544.72, 0.000, 0.000, 0.000, 20:48:19.760, 1541900899760
28, -166984.94, -152839.13, -167749.72, -167658.17, -167386.94, -167242.98, -167537.55, -167524.33, 0.000, 0.000, 0.000, 20:48:19.760, 1541900899760
29, -167006.63, -152972.36, -167802.30, -168109.66, -167304.75, -167386.53, -167536.41, -167425.89, 0.000, 0.000, 0.000, 20:48:19.760, 1541900899760
30, -166976.17, -153089.81, -167754.91, -168434.17, -167206.44, -167346.91, -167522.92, -167493.70, 0.040, -0.084, 0.998, 20:48:19.760, 1541900899760
