%OpenBCI Raw EEG Data
%Number of channels = 8
%Sample Rate = 250.0 Hz
%First Column = SampleIndex
%Last Column = Timestamp 
%Other Columns = EEG data in microvolts followed by Accel Data (in G) interleaved with Aux Data
0, 0.00, 0.00, 0.00, 0.00, 0.00, 0.00, 0.00, 0.00, 0.000, 0.000, 0.000, 21:25:18.644, 1541903118644
1, 38517.39, 16990.74, -187500.02, -187500.02, -187500.02, -187500.02, -187500.02, -187500.02, 0.348, 0.732, 0.504, 21:25:18.829, 1541903118829
2, 38354.72, 16787.72, -187500.02, -187500.02, -187500.02, -187500.02, -187500.02, -187500.02, 0.000, 0.000, 0.000, 21:25:18.829, 1541903118829
3, 37954.80, 16314.02, -187500.02, -187500.02, -187500.02, -187500.02, -187500.02, -187500.02, 0.000, 0.000, 0.000, 21:25:18.829, 1541903118829
4, 38006.66, 16387.31, -187500.02, -187500.02, -187500.02, -187500.02, -187500.02, -187500.02, 0.000, 0.000, 0.000, 21:25:18.829, 1541903118829
5, 38463.93, 16926.73, -187500.02, -187500.02, -187500.02, -187500.02, -187500.02, -187500.02, 0.000, 0.000, 0.000, 21:25:18.829, 1541903118829
6, 38425.80, 16881.80, -187500.02, -187500.02, -187500.02, -187500.02, -187500.02, -187500.02, 0.000, 0.000, 0.000, 21:25:18.829, 1541903118829
7, 37981.83, 16365.75, -187500.02, -187500.02, -187500.02, -187500.02, -187500.02, -187500.02, 0.000, 0.000, 0.000, 21:25:18.829, 1541903118829
8, 37955.45, 16333.94, -187500.02, -187500.02, -187500.02, -187500.02, -187500.02, -187500.02, 0.348, 0.720, 0.506, 21:25:18.829, 1541903118829
9, 38375.93, 16840.94, -187500.02, -187500.02, -187500.02, -187500.02, -187500.02, -187500.02, 0.000, 0.000, 0.000, 21:25:18.829, 1541903118829
10, 38477.81, 16967.68, -187500.02, -187500.02, -187500.02, -187500.02, -187500.02, -187500.02, 0.000, 0.000, 0.000, 21:25:18.829, 1541903118829
11, 38046.33, 16438.39, -187500.02, -187500.02, -187500.02, -187500.02, -187500.02, -187500.02, 0.000, 0.000, 0.000, 21:25:18.830, 1541903118830
12, 37935.85, 16312.39, -187500.02, -187500.02, -187500.02, -187500.02, -187500.02, -187500.02, 0.000, 0.000, 0.000, 21:25:18.830, 1541903118830
13, 38315.16, 16765.73, -187500.02, -187500.02, -187500.02, -187500.02, -187500.02, -187500.02, 0.000, 0.000, 0.000, 21:25:18.830, 1541903118830
14, 38561.74, 17057.98, -187500.02, -187500.02, -187500.02, -187500.02, -187500.02, -187500.02, 0.000, 0.000, 0.000, 21:25:18.830, 1541903118830
15, 38138.33, 16542.35, -187500.02, -187500.02, -187500.02, -187500.02, -187500.02, -187500.02, 0.000, 0.000, 0.000, 21:25:18.830, 1541903118830
16, 37924.56, 16284.16, -187500.02, -187500.02, -187500.02, -187500.02, -187500.02, -187500.02, 0.000, 0.000, 0.000, 21:25:18.830, 1541903118830
17, 38206.19, 16635.38, -187500.02, -187500.02, -187500.02, -187500.02, -187500.02, -187500.02, 0.000, 0.000, 0.000, 21:25:18.830, 1541903118830
18, 38554.30, 17059.39, -187500.02, -187500.02, -187500.02, -187500.02, -187500.02, -187500.02, 0.354, 0.730, 0.516, 21:25:18.830, 1541903118830
19, 38180.20, 16612.24, -187500.02, -187500.02, -187500.02, -187500.02, -187500.02, -187500.02, 0.000, 0.000, 0.000, 21:25:18.830, 1541903118830
20, 37897.18, 16273.88, -187500.02, -187500.02, -187500.02, -187500.02, -187500.02, -187500.02, 0.000, 0.000, 0.000, 21:25:18.830, 1541903118830
21, 38117.57, 16528.29, -187500.02, -187500.02, -187500.02, -187500.02, -187500.02, -187500.02, 0.000, 0.000, 0.000, 21:25:18.831, 1541903118831
22, 38527.99, 17027.07, -187500.02, -187500.02, -187500.02, -187500.02, -187500.02, -187500.02, 0.000, 0.000, 0.000, 21:25:18.831, 1541903118831
23, 38255.88, 16693.45, -187500.02, -187500.02, -187500.02, -187500.02, -187500.02, -187500.02, 0.000, 0.000, 0.000, 21:25:18.831, 1541903118831
24, 37910.64, 16269.37, -187500.02, -187500.02, -187500.02, -187500.02, -187500.02, -187500.02, 0.000, 0.000, 0.000, 21:25:18.831, 1541903118831
25, 38029.28, 16428.06, -187500.02, -187500.02, -187500.02, -187500.02, -187500.02, -187500.02, 0.000, 0.000, 0.000, 21:25:18.831, 1541903118831
26, 38485.28, 16992.89, -187500.02, -187500.02, -187500.02, -187500.02, -187500.02, -187500.02, 0.000, 0.000, 0.000, 21:25:18.831, 1541903118831
27, 38351.88, 16816.80, -187500.02, -187500.02, -187500.02, -187500.02, -187500.02, -187500.02, 0.000, 0.000, 0.000, 21:25:18.832, 1541903118832
28, 37953.98, 16318.61, -187500.02, -187500.02, -187500.02, -187500.02, -187500.02, -187500.02, 0.360, 0.720, 0.520, 21:25:18.832, 1541903118832
29, 37985.25, 16362.39, -187500.02, -187500.02, -187500.02, -187500.02, -187500.02, -187500.02, 0.000, 0.000, 0.000, 21:25:18.840, 1541903118840
30, 38432.13, 16911.13, -187500.02, -187500.02, -187500.02, -187500.02, -187500.02, -187500.02, 0.000, 0.000, 0.000, 21:25:18.840, 1541903118840
31, 38424.23, 16908.56, -187500.02, -187500.02, -187500.02, -187500.02, -187500.02, -187500.02, 0.000, 0.000, 0.000, 21:25:18.841, 1541903118841
32, 37987.84, 16374.62, -187500.02, -187500.02, -187500.02, -187500.02, -187500.02, -187500.02, 0.000, 0.000, 0.000, 21:25:18.841, 1541903118841
33, 37932.52, 16309.04, -187500.02, -187500.02, -187500.02, -187500.02, -187500.02, -187500.02, 0.000, 0.000, 0.000, 21:25:18.841, 1541903118841
34, 38342.29, 16811.89, -187500.02, -187500.02, -187500.02, -187500.02, -187500.02, -187500.02, 0.000, 0.000, 0.000, 21:25:18.841, 1541903118841
35, 38479.82, 16978.88, -187500.02, -187500.02, -187500.02, -187500.02, -187500.02, -187500.02, 0.000, 0.000, 0.000, 21:25:18.841, 1541903118841
36, 38050.51, 16444.74, -187500.02, -187500.02, -187500.02, -187500.02, -187500.02, -187500.02, 0.000, 0.000, 0.000, 21:25:18.841, 1541903118841
37, 37903.17, 16274.48, -187500.02, -187500.02, -187500.02, -187500.02, -187500.02, -187500.02, 0.000, 0.000, 0.000, 21:25:18.841, 1541903118841
38, 38268.64, 16700.20, -187500.02, -187500.02, -187500.02, -187500.02, -187500.02, -187500.02, 0.362, 0.718, 0.516, 21:25:18.842, 1541903118842
39, 38524.68, 17014.44, -187500.02, -187500.02, -187500.02, -187500.02, -187500.02, -187500.02, 0.000, 0.000, 0.000, 21:25:18.842, 1541903118842
40, 38110.84, 16518.97, -187500.02, -187500.02, -187500.02, -187500.02, -187500.02, -187500.02, 0.000, 0.000, 0.000, 21:25:18.842, 1541903118842
41, 37891.32, 16262.19, -187500.02, -187500.02, -187500.02, -187500.02, -187500.02, -187500.02, 0.000, 0.000, 0.000, 21:25:18.842, 1541903118842
42, 38172.31, 16611.62, -187500.02, -187500.02, -187500.02, -187500.02, -187500.02, -187500.02, 0.000, 0.000, 0.000, 21:25:18.842, 1541903118842
52, 38355.05, 16818.81, -187500.02, -187500.02, -187500.02, -187500.02, -187500.02, -187500.02, 0.000, 0.000, 0.000, 21:25:19.334, 1541903119334
53, 37959.54, 16343.01, -187500.02, -187500.02, -187500.02, -187500.02, -187500.02, -187500.02, 0.000, 0.000, 0.000, 21:25:19.334, 1541903119334
54, 37984.80, 16370.04, -187500.02, -187500.02, -187500.02, -187500.02, -187500.02, -187500.02, 0.000, 0.000, 0.000, 21:25:19.334, 1541903119334
55, 38430.71, 16894.12, -187500.02, -187500.02, -187500.02, -187500.02, -187500.02, -187500.02, 0.000, 0.000, 0.000, 21:25:19.334, 1541903119334
56, 38431.88, 16895.39, -187500.02, -187500.02, -187500.02, -187500.02, -187500.02, -187500.02, 0.000, 0.000, 0.000, 21:25:19.334, 1541903119334
57, 37991.21, 16369.70, -187500.02, -187500.02, -187500.02, -187500.02, -187500.02, -187500.02, 0.000, 0.000, 0.000, 21:25:19.334, 1541903119334
58, 37915.38, 16294.44, -187500.02, -187500.02, -187500.02, -187500.02, -187500.02, -187500.02, 0.000, 0.000, 0.000, 21:25:19.334, 1541903119334
59, 38306.80, 16774.38, -187500.02, -187500.02, -187500.02, -187500.02, -187500.02, -187500.02, 0.358, 0.708, 0.526, 21:25:19.334, 1541903119334
60, 38464.96, 16957.60, -187500.02, -187500.02, -187500.02, -187500.02, -187500.02, -187500.02, 0.000, 0.000, 0.000, 21:25:19.334, 1541903119334
61, 38040.43, 16438.01, -187500.02, -187500.02, -187500.02, -187500.02, -187500.02, -187500.02, 0.000, 0.000, 0.000, 21:25:19.335, 1541903119335
62, 37885.27, 16261.41, -187500.02, -187500.02, -187500.02, -187500.02, -187500.02, -187500.02, 0.000, 0.000, 0.000, 21:25:19.335, 1541903119335
63, 38233.53, 16683.14, -187500.02, -187500.02, -187500.02, -187500.02, -187500.02, -187500.02, 0.000, 0.000, 0.000, 21:25:19.335, 1541903119335
64, 38532.59, 17027.13, -187500.02, -187500.02, -187500.02, -187500.02, -187500.02, -187500.02, 0.000, 0.000, 0.000, 21:25:19.335, 1541903119335
65, 38123.45, 16523.48, -187500.02, -187500.02, -187500.02, -187500.02, -187500.02, -187500.02, 0.000, 0.000, 0.000, 21:25:19.335, 1541903119335
66, 37887.86, 16260.96, -187500.02, -187500.02, -187500.02, -187500.02, -187500.02, -187500.02, 0.000, 0.000, 0.000, 21:25:19.336, 1541903119336
67, 38170.21, 16613.85, -187500.02, -187500.02, -187500.02, -187500.02, -187500.02, -187500.02, 0.000, 0.000, 0.000, 21:25:19.336, 1541903119336
68, 38547.06, 17062.11, -187500.02, -187500.02, -187500.02, -187500.02, -187500.02, -187500.02, 0.000, 0.000, 0.000, 21:25:19.336, 1541903119336
69, 38202.82, 16648.45, -187500.02, -187500.02, -187500.02, -187500.02, -187500.02, -187500.02, 0.364, 0.714, 0.530, 21:25:19.337, 1541903119337
70, 37911.78, 16299.12, -187500.02, -187500.02, -187500.02, -187500.02, -187500.02, -187500.02, 0.000, 0.000, 0.000, 21:25:19.337, 1541903119337
71, 38120.96, 16564.05, -187500.02, -187500.02, -187500.02, -187500.02, -187500.02, -187500.02, 0.000, 0.000, 0.000, 21:25:19.337, 1541903119337
72, 38563.98, 17101.63, -187500.02, -187500.02, -187500.02, -187500.02, -187500.02, -187500.02, 0.000, 0.000, 0.000, 21:25:19.337, 1541903119337
73, 38329.66, 16824.31, -187500.02, -187500.02, -187500.02, -187500.02, -187500.02, -187500.02, 0.000, 0.000, 0.000, 21:25:19.337, 1541903119337
74, 37969.09, 16390.40, -187500.02, -187500.02, -187500.02, -187500.02, -187500.02, -187500.02, 0.000, 0.000, 0.000, 21:25:19.337, 1541903119337
75, 38082.83, 16528.87, -187500.02, -187500.02, -187500.02, -187500.02, -187500.02, -187500.02, 0.000, 0.000, 0.000, 21:25:19.337, 1541903119337
76, 38544.00, 17086.61, -187500.02, -187500.02, -187500.02, -187500.02, -187500.02, -187500.02, 0.000, 0.000, 0.000, 21:25:19.337, 1541903119337
77, 38436.48, 16959.32, -187500.02, -187500.02, -187500.02, -187500.02, -187500.02, -187500.02, 0.000, 0.000, 0.000, 21:25:19.337, 1541903119337
78, 38026.22, 16474.46, -187500.02, -187500.02, -187500.02, -187500.02, -187500.02, -187500.02, 0.000, 0.000, 0.000, 21:25:19.337, 1541903119337
79, 38023.85, 16480.46, -187500.02, -187500.02, -187500.02, -187500.02, -187500.02, -187500.02, 0.362, 0.710, 0.530, 21:25:19.337, 1541903119337
80, 38466.03, 17005.36, -187500.02, -187500.02, -187500.02, -187500.02, -187500.02, -187500.02, 0.000, 0.000, 0.000, 21:25:19.338, 1541903119338
81, 38533.60, 17058.94, -187500.02, -187500.02, -187500.02, -187500.02, -187500.02, -187500.02, 0.000, 0.000, 0.000, 21:25:19.338, 1541903119338
82, 38089.59, 16524.00, -187500.02, -187500.02, -187500.02, -187500.02, -187500.02, -187500.02, 0.000, 0.000, 0.000, 21:25:19.338, 1541903119338
83, 37977.47, 16426.56, -187500.02, -187500.02, -187500.02, -187500.02, -187500.02, -187500.02, 0.000, 0.000, 0.000, 21:25:19.338, 1541903119338
84, 38351.66, 16890.92, -187500.02, -187500.02, -187500.02, -187500.02, -187500.02, -187500.02, 0.000, 0.000, 0.000, 21:25:19.338, 1541903119338
85, 38522.70, 17078.16, -187500.02, -187500.02, -187500.02, -187500.02, -187500.02, -187500.02, 0.000, 0.000, 0.000, 21:25:19.338, 1541903119338
86, 38096.51, 16537.70, -187500.02, -187500.02, -187500.02, -187500.02, -187500.02, -187500.02, 0.000, 0.000, 0.000, 21:25:19.338, 1541903119338
87, 37937.50, 16355.93, -187500.02, -187500.02, -187500.02, -187500.02, -187500.02, -187500.02, 0.000, 0.000, 0.000, 21:25:19.339, 1541903119339
88, 38282.55, 16776.53, -187500.02, -187500.02, -187500.02, -187500.02, -187500.02, -187500.02, 0.000, 0.000, 0.000, 21:25:19.339, 1541903119339
89, 38564.49, 17127.20, -187500.02, -187500.02, -187500.02, -187500.02, -187500.02, -187500.02, 0.354, 0.706, 0.524, 21:25:19.340, 1541903119340
90, 38151.99, 16619.68, -187500.02, -187500.02, -187500.02, -187500.02, -187500.02, -187500.02, 0.000, 0.000, 0.000, 21:25:19.340, 1541903119340
91, 37915.00, 16335.59, -187500.02, -187500.02, -187500.02, -187500.02, -187500.02, -187500.02, 0.000, 0.000, 0.000, 21:25:19.340, 1541903119340
92, 38174.68, 16648.09, -187500.02, -187500.02, -187500.02, -187500.02, -187500.02, -187500.02, 0.000, 0.000, 0.000, 21:25:19.340, 1541903119340
93, 38566.21, 17121.08, -187500.02, -187500.02, -187500.02, -187500.02, -187500.02, -187500.02, 0.000, 0.000, 0.000, 21:25:19.340, 1541903119340
94, 38241.82, 16724.78, -187500.02, -187500.02, -187500.02, -187500.02, -187500.02, -187500.02, 0.000, 0.000, 0.000, 21:25:19.341, 1541903119341
95, 37921.21, 16341.20, -187500.02, -187500.02, -187500.02, -187500.02, -187500.02, -187500.02, 0.000, 0.000, 0.000, 21:25:19.341, 1541903119341
96, 38103.04, 16575.94, -187500.02, -187500.02, -187500.02, -187500.02, -187500.02, -187500.02, 0.000, 0.000, 0.000, 21:25:19.341, 1541903119341
97, 38536.11, 17104.45, -187500.02, -187500.02, -187500.02, -187500.02, -187500.02, -187500.02, 0.000, 0.000, 0.000, 21:25:19.342, 1541903119342
98, 38307.83, 16820.27, -187500.02, -187500.02, -187500.02, -187500.02, -187500.02, -187500.02, 0.000, 0.000, 0.000, 21:25:19.342, 1541903119342
99, 37928.54, 16355.73, -187500.02, -187500.02, -187500.02, -187500.02, -187500.02, -187500.02, 0.354, 0.704, 0.528, 21:25:19.342, 1541903119342
100, 38018.86, 16463.02, -187500.02, -187500.02, -187500.02, -187500.02, -187500.02, -187500.02, 0.000, 0.000, 0.000, 21:25:19.342, 1541903119342
101, 38484.56, 17022.39, -187500.02, -187500.02, -187500.02, -187500.02, -187500.02, -187500.02, 0.000, 0.000, 0.000, 21:25:19.342, 1541903119342
102, 38391.00, 16909.45, -187500.02, -187500.02, -187500.02, -187500.02, -187500.02, -187500.02, 0.000, 0.000, 0.000, 21:25:19.342, 1541903119342
103, 37964.35, 16391.38, -187500.02, -187500.02, -187500.02, -187500.02, -187500.02, -187500.02, 0.000, 0.000, 0.000, 21:25:19.342, 1541903119342
104, 37958.04, 16394.54, -187500.02, -187500.02, -187500.02, -187500.02, -187500.02, -187500.02, 0.000, 0.000, 0.000, 21:25:19.342, 1541903119342
105, 38411.05, 16939.85, -187500.02, -187500.02, -187500.02, -187500.02, -187500.02, -187500.02, 0.000, 0.000, 0.000, 21:25:19.342, 1541903119342
106, 38473.41, 17016.70, -187500.02, -187500.02, -187500.02, -187500.02, -187500.02, -187500.02, 0.000, 0.000, 0.000, 21:25:19.342, 1541903119342
107, 38032.88, 16481.64, -187500.02, -187500.02, -187500.02, -187500.02, -187500.02, -187500.02, 0.000, 0.000, 0.000, 21:25:19.343, 1541903119343
108, 37949.91, 16380.01, -187500.02, -187500.02, -187500.02, -187500.02, -187500.02, -187500.02, 0.000, 0.000, 0.000, 21:25:19.343, 1541903119343
109, 38347.41, 16853.75, -187500.02, -187500.02, -187500.02, -187500.02, -187500.02, -187500.02, 0.358, 0.710, 0.526, 21:25:19.343, 1541903119343
110, 38514.00, 17057.33, -187500.02, -187500.02, -187500.02, -187500.02, -187500.02, -187500.02, 0.000, 0.000, 0.000, 21:25:19.343, 1541903119343
111, 38071.52, 16525.14, -187500.02, -187500.02, -187500.02, -187500.02, -187500.02, -187500.02, 0.000, 0.000, 0.000, 21:25:19.343, 1541903119343
112, 37900.42, 16320.66, -187500.02, -187500.02, -187500.02, -187500.02, -187500.02, -187500.02, 0.000, 0.000, 0.000, 21:25:19.343, 1541903119343
113, 38233.93, 16713.65, -187500.02, -187500.02, -187500.02, -187500.02, -187500.02, -187500.02, 0.000, 0.000, 0.000, 21:25:19.343, 1541903119343
114, 38550.59, 17086.99, -187500.02, -187500.02, -187500.02, -187500.02, -187500.02, -187500.02, 0.000, 0.000, 0.000, 21:25:19.343, 1541903119343
115, 38152.77, 16605.87, -187500.02, -187500.02, -187500.02, -187500.02, -187500.02, -187500.02, 0.000, 0.000, 0.000, 21:25:19.343, 1541903119343
116, 37888.22, 16302.42, -187500.02, -187500.02, -187500.02, -187500.02, -187500.02, -187500.02, 0.000, 0.000, 0.000, 21:25:19.344, 1541903119344
117, 38138.36, 16610.12, -187500.02, -187500.02, -187500.02, -187500.02, -187500.02, -187500.02, 0.000, 0.000, 0.000, 21:25:19.344, 1541903119344
118, 38557.81, 17100.67, -187500.02, -187500.02, -187500.02, -187500.02, -187500.02, -187500.02, 0.000, 0.000, 0.000, 21:25:19.344, 1541903119344
119, 38265.83, 16733.41, -187500.02, -187500.02, -187500.02, -187500.02, -187500.02, -187500.02, 0.000, 0.000, 0.000, 21:25:19.344, 1541903119344
120, 37936.74, 16344.06, -187500.02, -187500.02, -187500.02, -187500.02, -187500.02, -187500.02, 0.362, 0.712, 0.532, 21:25:19.344, 1541903119344
121, 38082.54, 16528.29, -187500.02, -187500.02, -187500.02, -187500.02, -187500.02, -187500.02, 0.000, 0.000, 0.000, 21:25:19.344, 1541903119344
122, 38524.88, 17061.33, -187500.02, -187500.02, -187500.02, -187500.02, -187500.02, -187500.02, 0.000, 0.000, 0.000, 21:25:19.344, 1541903119344
123, 38334.98, 16836.07, -187500.02, -187500.02, -187500.02, -187500.02, -187500.02, -187500.02, 0.000, 0.000, 0.000, 21:25:19.344, 1541903119344
124, 37954.20, 16382.15, -187500.02, -187500.02, -187500.02, -187500.02, -187500.02, -187500.02, 0.000, 0.000, 0.000, 21:25:19.345, 1541903119345
125, 38019.46, 16471.20, -187500.02, -187500.02, -187500.02, -187500.02, -187500.02, -187500.02, 0.000, 0.000, 0.000, 21:25:19.345, 1541903119345
126, 38494.35, 17012.05, -187500.02, -187500.02, -187500.02, -187500.02, -187500.02, -187500.02, 0.000, 0.000, 0.000, 21:25:19.345, 1541903119345
127, 38435.45, 16917.79, -187500.02, -187500.02, -187500.02, -187500.02, -187500.02, -187500.02, 0.000, 0.000, 0.000, 21:25:19.345, 1541903119345
128, 37996.00, 16396.81, -187500.02, -187500.02, -187500.02, -187500.02, -187500.02, -187500.02, 0.000, 0.000, 0.000, 21:25:19.345, 1541903119345
129, 37979.79, 16390.33, -187500.02, -187500.02, -187500.02, -187500.02, -187500.02, -187500.02, 0.000, 0.000, 0.000, 21:25:19.345, 1541903119345
130, 38416.70, 16919.78, -187500.02, -187500.02, -187500.02, -187500.02, -187500.02, -187500.02, 0.358, 0.712, 0.526, 21:25:19.345, 1541903119345
131, 38482.62, 16994.28, -187500.02, -187500.02, -187500.02, -187500.02, -187500.02, -187500.02, 0.000, 0.000, 0.000, 21:25:19.346, 1541903119346
132, 38039.27, 16456.22, -187500.02, -187500.02, -187500.02, -187500.02, -187500.02, -187500.02, 0.000, 0.000, 0.000, 21:25:19.346, 1541903119346
133, 37951.11, 16352.60, -187500.02, -187500.02, -187500.02, -187500.02, -187500.02, -187500.02, 0.000, 0.000, 0.000, 21:25:19.346, 1541903119346
134, 38353.45, 16832.45, -187500.02, -187500.02, -187500.02, -187500.02, -187500.02, -187500.02, 0.000, 0.000, 0.000, 21:25:19.346, 1541903119346
135, 38557.72, 17083.57, -187500.02, -187500.02, -187500.02, -187500.02, -187500.02, -187500.02, 0.000, 0.000, 0.000, 21:25:19.346, 1541903119346
136, 38125.77, 16553.81, -187500.02, -187500.02, -187500.02, -187500.02, -187500.02, -187500.02, 0.000, 0.000, 0.000, 21:25:19.346, 1541903119346
137, 37923.40, 16320.51, -187500.02, -187500.02, -187500.02, -187500.02, -187500.02, -187500.02, 0.000, 0.000, 0.000, 21:25:19.346, 1541903119346
138, 38239.99, 16701.58, -187500.02, -187500.02, -187500.02, -187500.02, -187500.02, -187500.02, 0.000, 0.000, 0.000, 21:25:19.346, 1541903119346
139, 38585.64, 17108.76, -187500.02, -187500.02, -187500.02, -187500.02, -187500.02, -187500.02, 0.000, 0.000, 0.000, 21:25:19.346, 1541903119346
140, 38204.72, 16645.03, -187500.02, -187500.02, -187500.02, -187500.02, -187500.02, -187500.02, 0.364, 0.712, 0.526, 21:25:19.346, 1541903119346
141, 37915.04, 16312.77, -187500.02, -187500.02, -187500.02, -187500.02, -187500.02, -187500.02, 0.000, 0.000, 0.000, 21:25:19.346, 1541903119346
142, 38150.27, 16593.53, -187500.02, -187500.02, -187500.02, -187500.02, -187500.02, -187500.02, 0.000, 0.000, 0.000, 21:25:19.346, 1541903119346
143, 38570.19, 17091.95, -187500.02, -187500.02, -187500.02, -187500.02, -187500.02, -187500.02, 0.000, 0.000, 0.000, 21:25:19.347, 1541903119347
144, 38254.09, 16728.71, -187500.02, -187500.02, -187500.02, -187500.02, -187500.02, -187500.02, 0.000, 0.000, 0.000, 21:25:19.347, 1541903119347
145, 37902.70, 16290.69, -187500.02, -187500.02, -187500.02, -187500.02, -187500.02, -187500.02, 0.000, 0.000, 0.000, 21:25:19.347, 1541903119347
146, 38052.32, 16467.89, -187500.02, -187500.02, -187500.02, -187500.02, -187500.02, -187500.02, 0.000, 0.000, 0.000, 21:25:19.347, 1541903119347
147, 38515.00, 17018.95, -187500.02, -187500.02, -187500.02, -187500.02, -187500.02, -187500.02, 0.000, 0.000, 0.000, 21:25:19.347, 1541903119347
148, 38339.45, 16803.50, -187500.02, -187500.02, -187500.02, -187500.02, -187500.02, -187500.02, 0.000, 0.000, 0.000, 21:25:19.347, 1541903119347
149, 37955.61, 16341.43, -187500.02, -187500.02, -187500.02, -187500.02, -187500.02, -187500.02, 0.000, 0.000, 0.000, 21:25:19.347, 1541903119347
150, 38009.07, 16420.78, -187500.02, -187500.02, -187500.02, -187500.02, -187500.02, -187500.02, 0.358, 0.712, 0.532, 21:25:19.347, 1541903119347
151, 38463.15, 16981.38, -187500.02, -187500.02, -187500.02, -187500.02, -187500.02, -187500.02, 0.000, 0.000, 0.000, 21:25:19.347, 1541903119347
152, 38419.96, 16921.54, -187500.02, -187500.02, -187500.02, -187500.02, -187500.02, -187500.02, 0.000, 0.000, 0.000, 21:25:19.347, 1541903119347
153, 37993.67, 16395.27, -187500.02, -187500.02, -187500.02, -187500.02, -187500.02, -187500.02, 0.000, 0.000, 0.000, 21:25:19.347, 1541903119347
154, 37960.59, 16352.18, -187500.02, -187500.02, -187500.02, -187500.02, -187500.02, -187500.02, 0.000, 0.000, 0.000, 21:25:19.347, 1541903119347
155, 38386.17, 16874.38, -187500.02, -187500.02, -187500.02, -187500.02, -187500.02, -187500.02, 0.000, 0.000, 0.000, 21:25:19.348, 1541903119348
156, 38487.89, 16996.02, -187500.02, -187500.02, -187500.02, -187500.02, -187500.02, -187500.02, 0.000, 0.000, 0.000, 21:25:19.348, 1541903119348
157, 38052.14, 16466.02, -187500.02, -187500.02, -187500.02, -187500.02, -187500.02, -187500.02, 0.000, 0.000, 0.000, 21:25:19.348, 1541903119348
158, 37941.77, 16338.41, -187500.02, -187500.02, -187500.02, -187500.02, -187500.02, -187500.02, 0.000, 0.000, 0.000, 21:25:19.348, 1541903119348
159, 38316.86, 16783.72, -187500.02, -187500.02, -187500.02, -187500.02, -187500.02, -187500.02, 0.000, 0.000, 0.000, 21:25:19.348, 1541903119348
160, 38550.84, 17061.27, -187500.02, -187500.02, -187500.02, -187500.02, -187500.02, -187500.02, 0.358, 0.704, 0.538, 21:25:19.348, 1541903119348
161, 38123.45, 16544.54, -187500.02, -187500.02, -187500.02, -187500.02, -187500.02, -187500.02, 0.000, 0.000, 0.000, 21:25:19.348, 1541903119348
162, 37921.88, 16304.77, -187500.02, -187500.02, -187500.02, -187500.02, -187500.02, -187500.02, 0.000, 0.000, 0.000, 21:25:19.348, 1541903119348
163, 38214.93, 16654.69, -187500.02, -187500.02, -187500.02, -187500.02, -187500.02, -187500.02, 0.000, 0.000, 0.000, 21:25:19.348, 1541903119348
164, 38556.40, 17068.44, -187500.02, -187500.02, -187500.02, -187500.02, -187500.02, -187500.02, 0.000, 0.000, 0.000, 21:25:19.348, 1541903119348
165, 38202.35, 16635.11, -187500.02, -187500.02, -187500.02, -187500.02, -187500.02, -187500.02, 0.000, 0.000, 0.000, 21:25:19.349, 1541903119349
166, 37934.29, 16318.54, -187500.02, -187500.02, -187500.02, -187500.02, -187500.02, -187500.02, 0.000, 0.000, 0.000, 21:25:19.349, 1541903119349
167, 38143.68, 16586.45, -187500.02, -187500.02, -187500.02, -187500.02, -187500.02, -187500.02, 0.000, 0.000, 0.000, 21:25:19.349, 1541903119349
168, 38587.13, 17100.40, -187500.02, -187500.02, -187500.02, -187500.02, -187500.02, -187500.02, 0.000, 0.000, 0.000, 21:25:19.349, 1541903119349
169, 38301.68, 16753.21, -187500.02, -187500.02, -187500.02, -187500.02, -187500.02, -187500.02, 0.000, 0.000, 0.000, 21:25:19.349, 1541903119349
170, 37947.20, 16329.87, -187500.02, -187500.02, -187500.02, -187500.02, -187500.02, -187500.02, 0.366, 0.704, 0.546, 21:25:19.349, 1541903119349
171, 38090.59, 16507.30, -187500.02, -187500.02, -187500.02, -187500.02, -187500.02, -187500.02, 0.000, 0.000, 0.000, 21:25:19.349, 1541903119349
172, 38542.12, 17050.18, -187500.02, -187500.02, -187500.02, -187500.02, -187500.02, -187500.02, 0.000, 0.000, 0.000, 21:25:19.815, 1541903119815
173, 38383.38, 16843.92, -187500.02, -187500.02, -187500.02, -187500.02, -187500.02, -187500.02, 0.000, 0.000, 0.000, 21:25:19.815, 1541903119815
174, 37989.09, 16360.34, -187500.02, -187500.02, -187500.02, -187500.02, -187500.02, -187500.02, 0.000, 0.000, 0.000, 21:25:19.815, 1541903119815
175, 38036.75, 16419.72, -187500.02, -187500.02, -187500.02, -187500.02, -187500.02, -187500.02, 0.000, 0.000, 0.000, 21:25:19.815, 1541903119815
176, 38490.30, 16971.68, -187500.02, -187500.02, -187500.02, -187500.02, -187500.02, -187500.02, 0.000, 0.000, 0.000, 21:25:19.815, 1541903119815
177, 38468.45, 16949.17, -187500.02, -187500.02, -187500.02, -187500.02, -187500.02, -187500.02, 0.000, 0.000, 0.000, 21:25:19.815, 1541903119815
178, 38027.45, 16431.28, -187500.02, -187500.02, -187500.02, -187500.02, -187500.02, -187500.02, 0.000, 0.000, 0.000, 21:25:19.815, 1541903119815
179, 37981.85, 16392.99, -187500.02, -187500.02, -187500.02, -187500.02, -187500.02, -187500.02, 0.000, 0.000, 0.000, 21:25:19.816, 1541903119816
180, 38407.63, 16896.38, -187500.02, -187500.02, -187500.02, -187500.02, -187500.02, -187500.02, 0.362, 0.700, 0.542, 21:25:19.816, 1541903119816
181, 38536.29, 17036.46, -187500.02, -187500.02, -187500.02, -187500.02, -187500.02, -187500.02, 0.000, 0.000, 0.000, 21:25:19.816, 1541903119816
182, 38096.40, 16491.77, -187500.02, -187500.02, -187500.02, -187500.02, -187500.02, -187500.02, 0.000, 0.000, 0.000, 21:25:19.816, 1541903119816
183, 37967.97, 16333.78, -187500.02, -187500.02, -187500.02, -187500.02, -187500.02, -187500.02, 0.000, 0.000, 0.000, 21:25:19.816, 1541903119816
184, 38343.01, 16792.11, -187500.02, -187500.02, -187500.02, -187500.02, -187500.02, -187500.02, 0.000, 0.000, 0.000, 21:25:19.816, 1541903119816
185, 38596.63, 17111.47, -187500.02, -187500.02, -187500.02, -187500.02, -187500.02, -187500.02, 0.000, 0.000, 0.000, 21:25:19.816, 1541903119816
186, 38174.18, 16604.73, -187500.02, -187500.02, -187500.02, -187500.02, -187500.02, -187500.02, 0.000, 0.000, 0.000, 21:25:19.816, 1541903119816
187, 37944.95, 16328.75, -187500.02, -187500.02, -187500.02, -187500.02, -187500.02, -187500.02, 0.000, 0.000, 0.000, 21:25:19.816, 1541903119816
188, 38232.34, 16681.58, -187500.02, -187500.02, -187500.02, -187500.02, -187500.02, -187500.02, 0.000, 0.000, 0.000, 21:25:19.816, 1541903119816
189, 38615.25, 17142.65, -187500.02, -187500.02, -187500.02, -187500.02, -187500.02, -187500.02, 0.000, 0.000, 0.000, 21:25:19.816, 1541903119816
190, 38269.96, 16717.18, -187500.02, -187500.02, -187500.02, -187500.02, -187500.02, -187500.02, 0.000, 0.000, 0.000, 21:25:19.816, 1541903119816
191, 37960.08, 16359.62, -187500.02, -187500.02, -187500.02, -187500.02, -187500.02, -187500.02, 0.368, 0.700, 0.534, 21:25:19.816, 1541903119816
192, 38158.54, 16597.13, -187500.02, -187500.02, -187500.02, -187500.02, -187500.02, -187500.02, 0.000, 0.000, 0.000, 21:25:19.816, 1541903119816
193, 38602.24, 17106.37, -187500.02, -187500.02, -187500.02, -187500.02, -187500.02, -187500.02, 0.000, 0.000, 0.000, 21:25:19.816, 1541903119816
194, 38347.46, 16793.83, -187500.02, -187500.02, -187500.02, -187500.02, -187500.02, -187500.02, 0.000, 0.000, 0.000, 21:25:19.816, 1541903119816
195, 37983.68, 16369.39, -187500.02, -187500.02, -187500.02, -187500.02, -187500.02, -187500.02, 0.000, 0.000, 0.000, 21:25:19.816, 1541903119816
196, 38085.18, 16505.89, -187500.02, -187500.02, -187500.02, -187500.02, -187500.02, -187500.02, 0.000, 0.000, 0.000, 21:25:19.816, 1541903119816
197, 38547.88, 17067.03, -187500.02, -187500.02, -187500.02, -187500.02, -187500.02, -187500.02, 0.000, 0.000, 0.000, 21:25:19.817, 1541903119817
198, 38426.18, 16917.72, -187500.02, -187500.02, -187500.02, -187500.02, -187500.02, -187500.02, 0.000, 0.000, 0.000, 21:25:19.817, 1541903119817
199, 38031.13, 16444.04, -187500.02, -187500.02, -187500.02, -187500.02, -187500.02, -187500.02, 0.000, 0.000, 0.000, 21:25:19.817, 1541903119817
200, 38069.00, 16480.30, -187500.02, -187500.02, -187500.02, -187500.02, -187500.02, -187500.02, 0.000, 0.000, 0.000, 21:25:19.817, 1541903119817
201, 38508.23, 17004.04, -187500.02, -187500.02, -187500.02, -187500.02, -187500.02, -187500.02, 0.368, 0.714, 0.532, 21:25:19.817, 1541903119817
202, 38501.62, 16999.17, -187500.02, -187500.02, -187500.02, -187500.02, -187500.02, -187500.02, 0.000, 0.000, 0.000, 21:25:19.817, 1541903119817
203, 38070.23, 16468.61, -187500.02, -187500.02, -187500.02, -187500.02, -187500.02, -187500.02, 0.000, 0.000, 0.000, 21:25:19.817, 1541903119817
204, 37997.72, 16379.74, -187500.02, -187500.02, -187500.02, -187500.02, -187500.02, -187500.02, 0.000, 0.000, 0.000, 21:25:19.817, 1541903119817
205, 38406.00, 16874.70, -187500.02, -187500.02, -187500.02, -187500.02, -187500.02, -187500.02, 0.000, 0.000, 0.000, 21:25:19.817, 1541903119817
206, 38569.18, 17061.29, -187500.02, -187500.02, -187500.02, -187500.02, -187500.02, -187500.02, 0.000, 0.000, 0.000, 21:25:19.817, 1541903119817
207, 38132.48, 16535.26, -187500.02, -187500.02, -187500.02, -187500.02, -187500.02, -187500.02, 0.000, 0.000, 0.000, 21:25:19.817, 1541903119817
208, 37982.88, 16380.05, -187500.02, -187500.02, -187500.02, -187500.02, -187500.02, -187500.02, 0.000, 0.000, 0.000, 21:25:19.817, 1541903119817
209, 38345.51, 16813.79, -187500.02, -187500.02, -187500.02, -187500.02, -187500.02, -187500.02, 0.000, 0.000, 0.000, 21:25:19.817, 1541903119817
210, 38621.67, 17127.34, -187500.02, -187500.02, -187500.02, -187500.02, -187500.02, -187500.02, 0.000, 0.000, 0.000, 21:25:19.817, 1541903119817
211, 38213.39, 16617.70, -187500.02, -187500.02, -187500.02, -187500.02, -187500.02, -187500.02, 0.364, 0.708, 0.532, 21:25:19.817, 1541903119817
212, 37988.84, 16348.65, -187500.02, -187500.02, -187500.02, -187500.02, -187500.02, -187500.02, 0.000, 0.000, 0.000, 21:25:19.817, 1541903119817
213, 38267.23, 16695.93, -187500.02, -187500.02, -187500.02, -187500.02, -187500.02, -187500.02, 0.000, 0.000, 0.000, 21:25:19.818, 1541903119818
214, 38650.08, 17156.28, -187500.02, -187500.02, -187500.02, -187500.02, -187500.02, -187500.02, 0.000, 0.000, 0.000, 21:25:19.818, 1541903119818
215, 38305.01, 16733.21, -187500.02, -187500.02, -187500.02, -187500.02, -187500.02, -187500.02, 0.000, 0.000, 0.000, 21:25:19.818, 1541903119818
216, 37981.60, 16350.37, -187500.02, -187500.02, -187500.02, -187500.02, -187500.02, -187500.02, 0.000, 0.000, 0.000, 21:25:19.818, 1541903119818
217, 38169.13, 16570.46, -187500.02, -187500.02, -187500.02, -187500.02, -187500.02, -187500.02, 0.000, 0.000, 0.000, 21:25:19.819, 1541903119819
218, 38604.32, 17092.51, -187500.02, -187500.02, -187500.02, -187500.02, -187500.02, -187500.02, 0.000, 0.000, 0.000, 21:25:19.820, 1541903119820
219, 38365.34, 16810.77, -187500.02, -187500.02, -187500.02, -187500.02, -187500.02, -187500.02, 0.000, 0.000, 0.000, 21:25:19.820, 1541903119820
220, 38010.62, 16380.90, -187500.02, -187500.02, -187500.02, -187500.02, -187500.02, -187500.02, 0.000, 0.000, 0.000, 21:25:19.822, 1541903119822
221, 38121.35, 16516.84, -187500.02, -187500.02, -187500.02, -187500.02, -187500.02, -187500.02, 0.358, 0.714, 0.528, 21:25:19.822, 1541903119822
222, 38587.36, 17071.03, -187500.02, -187500.02, -187500.02, -187500.02, -187500.02, -187500.02, 0.000, 0.000, 0.000, 21:25:19.822, 1541903119822
223, 38472.52, 16930.80, -187500.02, -187500.02, -187500.02, -187500.02, -187500.02, -187500.02, 0.000, 0.000, 0.000, 21:25:19.822, 1541903119822
224, 38043.74, 16420.11, -187500.02, -187500.02, -187500.02, -187500.02, -187500.02, -187500.02, 0.000, 0.000, 0.000, 21:25:19.822, 1541903119822
225, 38038.00, 16418.21, -187500.02, -187500.02, -187500.02, -187500.02, -187500.02, -187500.02, 0.000, 0.000, 0.000, 21:25:19.822, 1541903119822
226, 38492.47, 16958.22, -187500.02, -187500.02, -187500.02, -187500.02, -187500.02, -187500.02, 0.000, 0.000, 0.000, 21:25:19.822, 1541903119822
227, 38549.63, 17016.49, -187500.02, -187500.02, -187500.02, -187500.02, -187500.02, -187500.02, 0.000, 0.000, 0.000, 21:25:19.822, 1541903119822
228, 38100.43, 16487.67, -187500.02, -187500.02, -187500.02, -187500.02, -187500.02, -187500.02, 0.000, 0.000, 0.000, 21:25:19.823, 1541903119823
229, 38023.85, 16395.85, -187500.02, -187500.02, -187500.02, -187500.02, -187500.02, -187500.02, 0.000, 0.000, 0.000, 21:25:19.823, 1541903119823
230, 38427.65, 16871.12, -187500.02, -187500.02, -187500.02, -187500.02, -187500.02, -187500.02, 0.000, 0.000, 0.000, 21:25:19.823, 1541903119823
231, 38573.59, 17057.09, -187500.02, -187500.02, -187500.02, -187500.02, -187500.02, -187500.02, 0.354, 0.714, 0.524, 21:25:19.823, 1541903119823
232, 38133.75, 16522.32, -187500.02, -187500.02, -187500.02, -187500.02, -187500.02, -187500.02, 0.000, 0.000, 0.000, 21:25:19.823, 1541903119823
233, 37968.19, 16326.85, -187500.02, -187500.02, -187500.02, -187500.02, -187500.02, -187500.02, 0.000, 0.000, 0.000, 21:25:19.823, 1541903119823
234, 38332.30, 16763.65, -187500.02, -187500.02, -187500.02, -187500.02, -187500.02, -187500.02, 0.000, 0.000, 0.000, 21:25:19.823, 1541903119823
235, 38639.88, 17143.45, -187500.02, -187500.02, -187500.02, -187500.02, -187500.02, -187500.02, 0.000, 0.000, 0.000, 21:25:19.823, 1541903119823
236, 38247.92, 16644.52, -187500.02, -187500.02, -187500.02, -187500.02, -187500.02, -187500.02, 0.000, 0.000, 0.000, 21:25:19.823, 1541903119823
237, 37986.72, 16331.15, -187500.02, -187500.02, -187500.02, -187500.02, -187500.02, -187500.02, 0.000, 0.000, 0.000, 21:25:19.823, 1541903119823
238, 38239.68, 16659.60, -187500.02, -187500.02, -187500.02, -187500.02, -187500.02, -187500.02, 0.000, 0.000, 0.000, 21:25:19.824, 1541903119824
239, 38637.13, 17142.13, -187500.02, -187500.02, -187500.02, -187500.02, -187500.02, -187500.02, 0.000, 0.000, 0.000, 21:25:19.824, 1541903119824
240, 38317.57, 16740.74, -187500.02, -187500.02, -187500.02, -187500.02, -187500.02, -187500.02, 0.000, 0.000, 0.000, 21:25:19.824, 1541903119824
241, 38004.78, 16363.47, -187500.02, -187500.02, -187500.02, -187500.02, -187500.02, -187500.02, 0.356, 0.712, 0.526, 21:25:19.824, 1541903119824
242, 38170.88, 16568.41, -187500.02, -187500.02, -187500.02, -187500.02, -187500.02, -187500.02, 0.000, 0.000, 0.000, 21:25:19.824, 1541903119824
243, 38618.11, 17098.14, -187500.02, -187500.02, -187500.02, -187500.02, -187500.02, -187500.02, 0.000, 0.000, 0.000, 21:25:19.824, 1541903119824
244, 38404.57, 16825.70, -187500.02, -187500.02, -187500.02, -187500.02, -187500.02, -187500.02, 0.000, 0.000, 0.000, 21:25:19.824, 1541903119824
245, 38036.75, 16377.39, -187500.02, -187500.02, -187500.02, -187500.02, -187500.02, -187500.02, 0.000, 0.000, 0.000, 21:25:19.824, 1541903119824
246, 38119.91, 16494.31, -187500.02, -187500.02, -187500.02, -187500.02, -187500.02, -187500.02, 0.000, 0.000, 0.000, 21:25:19.824, 1541903119824
247, 38576.85, 17053.62, -187500.02, -187500.02, -187500.02, -187500.02, -187500.02, -187500.02, 0.000, 0.000, 0.000, 21:25:19.825, 1541903119825
248, 38501.30, 16957.42, -187500.02, -187500.02, -187500.02, -187500.02, -187500.02, -187500.02, 0.000, 0.000, 0.000, 21:25:19.825, 1541903119825
249, 38081.80, 16448.74, -187500.02, -187500.02, -187500.02, -187500.02, -187500.02, -187500.02, 0.000, 0.000, 0.000, 21:25:19.825, 1541903119825
250, 38066.85, 16440.15, -187500.02, -187500.02, -187500.02, -187500.02, -187500.02, -187500.02, 0.000, 0.000, 0.000, 21:25:19.825, 1541903119825
251, 38518.25, 16976.80, -187500.02, -187500.02, -187500.02, -187500.02, -187500.02, -187500.02, 0.356, 0.712, 0.536, 21:25:19.825, 1541903119825
252, 38556.82, 17031.92, -187500.02, -187500.02, -187500.02, -187500.02, -187500.02, -187500.02, 0.000, 0.000, 0.000, 21:25:19.825, 1541903119825
253, 38100.85, 16479.14, -187500.02, -187500.02, -187500.02, -187500.02, -187500.02, -187500.02, 0.000, 0.000, 0.000, 21:25:19.825, 1541903119825
254, 38005.99, 16362.62, -187500.02, -187500.02, -187500.02, -187500.02, -187500.02, -187500.02, 0.000, 0.000, 0.000, 21:25:19.825, 1541903119825
255, 38399.94, 16832.67, -187500.02, -187500.02, -187500.02, -187500.02, -187500.02, -187500.02, 0.000, 0.000, 0.000, 21:25:19.825, 1541903119825
0, 38597.35, 17069.65, -187500.02, -187500.02, -187500.02, -187500.02, -187500.02, -187500.02, 0.000, 0.000, 0.000, 21:25:19.825, 1541903119825
1, 38160.48, 16555.78, -187500.02, -187500.02, -187500.02, -187500.02, -187500.02, -187500.02, 0.000, 0.000, 0.000, 21:25:19.825, 1541903119825
2, 37990.10, 16360.74, -187500.02, -187500.02, -187500.02, -187500.02, -187500.02, -187500.02, 0.000, 0.000, 0.000, 21:25:19.825, 1541903119825
3, 38335.21, 16758.22, -187500.02, -187500.02, -187500.02, -187500.02, -187500.02, -187500.02, 0.000, 0.000, 0.000, 21:25:19.826, 1541903119826
4, 38636.69, 17112.34, -187500.02, -187500.02, -187500.02, -187500.02, -187500.02, -187500.02, 0.000, 0.000, 0.000, 21:25:19.826, 1541903119826
5, 38229.02, 16630.12, -187500.02, -187500.02, -187500.02, -187500.02, -187500.02, -187500.02, 0.000, 0.000, 0.000, 21:25:19.826, 1541903119826
6, 37979.41, 16333.16, -187500.02, -187500.02, -187500.02, -187500.02, -187500.02, -187500.02, 0.354, 0.710, 0.530, 21:25:19.826, 1541903119826
7, 38234.98, 16638.41, -187500.02, -187500.02, -187500.02, -187500.02, -187500.02, -187500.02, 0.000, 0.000, 0.000, 21:25:19.826, 1541903119826
8, 38630.25, 17102.62, -187500.02, -187500.02, -187500.02, -187500.02, -187500.02, -187500.02, 0.000, 0.000, 0.000, 21:25:19.826, 1541903119826
9, 38325.08, 16722.97, -187500.02, -187500.02, -187500.02, -187500.02, -187500.02, -187500.02, 0.000, 0.000, 0.000, 21:25:19.826, 1541903119826
10, 38007.04, 16355.62, -187500.02, -187500.02, -187500.02, -187500.02, -187500.02, -187500.02, 0.000, 0.000, 0.000, 21:25:19.826, 1541903119826
11, 38186.95, 16566.64, -187500.02, -187500.02, -187500.02, -187500.02, -187500.02, -187500.02, 0.000, 0.000, 0.000, 21:25:19.826, 1541903119826
12, 38600.59, 17066.21, -187500.02, -187500.02, -187500.02, -187500.02, -187500.02, -187500.02, 0.000, 0.000, 0.000, 21:25:19.826, 1541903119826
13, 38353.45, 16769.96, -187500.02, -187500.02, -187500.02, -187500.02, -187500.02, -187500.02, 0.000, 0.000, 0.000, 21:25:19.826, 1541903119826
14, 37963.09, 16287.80, -187500.02, -187500.02, -187500.02, -187500.02, -187500.02, -187500.02, 0.000, 0.000, 0.000, 21:25:19.826, 1541903119826
15, 38025.25, 16375.78, -187500.02, -187500.02, -187500.02, -187500.02, -187500.02, -187500.02, 0.000, 0.000, 0.000, 21:25:19.827, 1541903119827
16, 38470.55, 16920.14, -187500.02, -187500.02, -187500.02, -187500.02, -187500.02, -187500.02, 0.356, 0.712, 0.538, 21:25:19.827, 1541903119827
17, 38382.13, 16796.98, -187500.02, -187500.02, -187500.02, -187500.02, -187500.02, -187500.02, 0.000, 0.000, 0.000, 21:25:19.827, 1541903119827
18, 37947.41, 16245.38, -187500.02, -187500.02, -187500.02, -187500.02, -187500.02, -187500.02, 0.000, 0.000, 0.000, 21:25:19.827, 1541903119827
19, 37912.43, 16210.96, -187500.02, -187500.02, -187500.02, -187500.02, -187500.02, -187500.02, 0.000, 0.000, 0.000, 21:25:19.827, 1541903119827
20, 38338.76, 16734.15, -187500.02, -187500.02, -187500.02, -187500.02, -187500.02, -187500.02, 0.000, 0.000, 0.000, 21:25:19.827, 1541903119827
21, 38406.93, 16819.15, -187500.02, -187500.02, -187500.02, -187500.02, -187500.02, -187500.02, 0.000, 0.000, 0.000, 21:25:19.827, 1541903119827
22, 37976.11, 16291.54, -187500.02, -187500.02, -187500.02, -187500.02, -187500.02, -187500.02, 0.000, 0.000, 0.000, 21:25:19.827, 1541903119827
23, 37882.11, 16171.78, -187500.02, -187500.02, -187500.02, -187500.02, -187500.02, -187500.02, 0.000, 0.000, 0.000, 21:25:19.827, 1541903119827
24, 38270.79, 16630.55, -187500.02, -187500.02, -187500.02, -187500.02, -187500.02, -187500.02, 0.000, 0.000, 0.000, 21:25:19.827, 1541903119827
25, 38486.59, 16900.06, -187500.02, -187500.02, -187500.02, -187500.02, -187500.02, -187500.02, 0.000, 0.000, 0.000, 21:25:19.827, 1541903119827
26, 38059.95, 16384.03, -187500.02, -187500.02, -187500.02, -187500.02, -187500.02, -187500.02, 0.354, 0.710, 0.538, 21:25:19.827, 1541903119827
27, 37866.49, 16151.46, -187500.02, -187500.02, -187500.02, -187500.02, -187500.02, -187500.02, 0.000, 0.000, 0.000, 21:25:19.828, 1541903119828
28, 38190.59, 16546.30, -187500.02, -187500.02, -187500.02, -187500.02, -187500.02, -187500.02, 0.000, 0.000, 0.000, 21:25:19.828, 1541903119828
29, 38522.63, 16958.27, -187500.02, -187500.02, -187500.02, -187500.02, -187500.02, -187500.02, 0.000, 0.000, 0.000, 21:25:19.828, 1541903119828
30, 38148.75, 16499.92, -187500.02, -187500.02, -187500.02, -187500.02, -187500.02, -187500.02, 0.000, 0.000, 0.000, 21:25:19.828, 1541903119828
31, 37886.50, 16172.40, -187500.02, -187500.02, -187500.02, -187500.02, -187500.02, -187500.02, 0.000, 0.000, 0.000, 21:25:19.828, 1541903119828
32, 38118.66, 16457.50, -187500.02, -187500.02, -187500.02, -187500.02, -187500.02, -187500.02, 0.000, 0.000, 0.000, 21:25:19.828, 1541903119828
33, 38539.50, 16956.61, -187500.02, -187500.02, -187500.02, -187500.02, -187500.02, -187500.02, 0.000, 0.000, 0.000, 21:25:19.828, 1541903119828
34, 38240.55, 16593.46, -187500.02, -187500.02, -187500.02, -187500.02, -187500.02, -187500.02, 0.000, 0.000, 0.000, 21:25:19.828, 1541903119828
35, 37896.53, 16194.49, -187500.02, -187500.02, -187500.02, -187500.02, -187500.02, -187500.02, 0.000, 0.000, 0.000, 21:25:19.829, 1541903119829
36, 38051.86, 16385.10, -187500.02, -187500.02, -187500.02, -187500.02, -187500.02, -187500.02, 0.354, 0.712, 0.540, 21:25:20.293, 1541903120293
37, 38508.50, 16940.05, -187500.02, -187500.02, -187500.02, -187500.02, -187500.02, -187500.02, 0.000, 0.000, 0.000, 21:25:20.293, 1541903120293
38, 38316.52, 16699.97, -187500.02, -187500.02, -187500.02, -187500.02, -187500.02, -187500.02, 0.000, 0.000, 0.000, 21:25:20.293, 1541903120293
39, 37932.32, 16231.63, -187500.02, -187500.02, -187500.02, -187500.02, -187500.02, -187500.02, 0.000, 0.000, 0.000, 21:25:20.293, 1541903120293
40, 38000.56, 16317.24, -187500.02, -187500.02, -187500.02, -187500.02, -187500.02, -187500.02, 0.000, 0.000, 0.000, 21:25:20.293, 1541903120293
41, 38462.28, 16880.35, -187500.02, -187500.02, -187500.02, -187500.02, -187500.02, -187500.02, 0.000, 0.000, 0.000, 21:25:20.293, 1541903120293
42, 38424.01, 16822.41, -187500.02, -187500.02, -187500.02, -187500.02, -187500.02, -187500.02, 0.000, 0.000, 0.000, 21:25:20.293, 1541903120293
43, 37992.67, 16287.49, -187500.02, -187500.02, -187500.02, -187500.02, -187500.02, -187500.02, 0.000, 0.000, 0.000, 21:25:20.293, 1541903120293
44, 37963.57, 16261.07, -187500.02, -187500.02, -187500.02, -187500.02, -187500.02, -187500.02, 0.000, 0.000, 0.000, 21:25:20.293, 1541903120293
45, 38382.86, 16783.90, -187500.02, -187500.02, -187500.02, -187500.02, -187500.02, -187500.02, 0.000, 0.000, 0.000, 21:25:20.293, 1541903120293
46, 38467.93, 16892.40, -187500.02, -187500.02, -187500.02, -187500.02, -187500.02, -187500.02, 0.354, 0.710, 0.538, 21:25:20.294, 1541903120294
47, 38012.98, 16336.31, -187500.02, -187500.02, -187500.02, -187500.02, -187500.02, -187500.02, 0.000, 0.000, 0.000, 21:25:20.294, 1541903120294
48, 37896.62, 16195.49, -187500.02, -187500.02, -187500.02, -187500.02, -187500.02, -187500.02, 0.000, 0.000, 0.000, 21:25:20.294, 1541903120294
49, 38288.27, 16662.85, -187500.02, -187500.02, -187500.02, -187500.02, -187500.02, -187500.02, 0.000, 0.000, 0.000, 21:25:20.296, 1541903120296
50, 38537.20, 16942.17, -187500.02, -187500.02, -187500.02, -187500.02, -187500.02, -187500.02, 0.000, 0.000, 0.000, 21:25:20.296, 1541903120296
51, 38105.43, 16423.48, -187500.02, -187500.02, -187500.02, -187500.02, -187500.02, -187500.02, 0.000, 0.000, 0.000, 21:25:20.296, 1541903120296
52, 37873.60, 16180.79, -187500.02, -187500.02, -187500.02, -187500.02, -187500.02, -187500.02, 0.000, 0.000, 0.000, 21:25:20.297, 1541903120297
53, 38174.30, 16554.75, -187500.02, -187500.02, -187500.02, -187500.02, -187500.02, -187500.02, 0.000, 0.000, 0.000, 21:25:20.297, 1541903120297
54, 38537.16, 16982.47, -187500.02, -187500.02, -187500.02, -187500.02, -187500.02, -187500.02, 0.000, 0.000, 0.000, 21:25:20.297, 1541903120297
55, 38164.73, 16525.72, -187500.02, -187500.02, -187500.02, -187500.02, -187500.02, -187500.02, 0.000, 0.000, 0.000, 21:25:20.297, 1541903120297
56, 37884.42, 16198.38, -187500.02, -187500.02, -187500.02, -187500.02, -187500.02, -187500.02, 0.354, 0.706, 0.528, 21:25:20.298, 1541903120298
57, 38122.08, 16483.09, -187500.02, -187500.02, -187500.02, -187500.02, -187500.02, -187500.02, 0.000, 0.000, 0.000, 21:25:20.298, 1541903120298
58, 38550.97, 16983.95, -187500.02, -187500.02, -187500.02, -187500.02, -187500.02, -187500.02, 0.000, 0.000, 0.000, 21:25:20.299, 1541903120299
59, 38273.63, 16637.28, -187500.02, -187500.02, -187500.02, -187500.02, -187500.02, -187500.02, 0.000, 0.000, 0.000, 21:25:20.300, 1541903120300
60, 37904.85, 16206.09, -187500.02, -187500.02, -187500.02, -187500.02, -187500.02, -187500.02, 0.000, 0.000, 0.000, 21:25:20.300, 1541903120300
61, 38029.82, 16360.56, -187500.02, -187500.02, -187500.02, -187500.02, -187500.02, -187500.02, 0.000, 0.000, 0.000, 21:25:20.300, 1541903120300
62, 38492.90, 16915.11, -187500.02, -187500.02, -187500.02, -187500.02, -187500.02, -187500.02, 0.000, 0.000, 0.000, 21:25:20.301, 1541903120301
63, 38339.07, 16735.00, -187500.02, -187500.02, -187500.02, -187500.02, -187500.02, -187500.02, 0.000, 0.000, 0.000, 21:25:20.301, 1541903120301
64, 37936.95, 16245.65, -187500.02, -187500.02, -187500.02, -187500.02, -187500.02, -187500.02, 0.000, 0.000, 0.000, 21:25:20.301, 1541903120301
65, 37998.90, 16316.50, -187500.02, -187500.02, -187500.02, -187500.02, -187500.02, -187500.02, 0.000, 0.000, 0.000, 21:25:20.301, 1541903120301
66, 38468.27, 16866.38, -187500.02, -187500.02, -187500.02, -187500.02, -187500.02, -187500.02, 0.356, 0.706, 0.530, 21:25:20.306, 1541903120306
67, 38427.12, 16822.23, -187500.02, -187500.02, -187500.02, -187500.02, -187500.02, -187500.02, 0.000, 0.000, 0.000, 21:25:20.307, 1541903120307
68, 37978.54, 16293.79, -187500.02, -187500.02, -187500.02, -187500.02, -187500.02, -187500.02, 0.000, 0.000, 0.000, 21:25:20.307, 1541903120307
69, 37915.55, 16235.26, -187500.02, -187500.02, -187500.02, -187500.02, -187500.02, -187500.02, 0.000, 0.000, 0.000, 21:25:20.307, 1541903120307
70, 38357.61, 16766.80, -187500.02, -187500.02, -187500.02, -187500.02, -187500.02, -187500.02, 0.000, 0.000, 0.000, 21:25:20.308, 1541903120308
71, 38491.18, 16922.28, -187500.02, -187500.02, -187500.02, -187500.02, -187500.02, -187500.02, 0.000, 0.000, 0.000, 21:25:20.309, 1541903120309
72, 38041.64, 16379.22, -187500.02, -187500.02, -187500.02, -187500.02, -187500.02, -187500.02, 0.000, 0.000, 0.000, 21:25:20.310, 1541903120310
73, 37910.86, 16216.50, -187500.02, -187500.02, -187500.02, -187500.02, -187500.02, -187500.02, 0.000, 0.000, 0.000, 21:25:20.311, 1541903120311
74, 38271.06, 16662.80, -187500.02, -187500.02, -187500.02, -187500.02, -187500.02, -187500.02, 0.000, 0.000, 0.000, 21:25:20.311, 1541903120311
75, 38523.77, 16953.64, -187500.02, -187500.02, -187500.02, -187500.02, -187500.02, -187500.02, 0.000, 0.000, 0.000, 21:25:20.312, 1541903120312
76, 38102.64, 16439.44, -187500.02, -187500.02, -187500.02, -187500.02, -187500.02, -187500.02, 0.000, 0.000, 0.000, 21:25:20.313, 1541903120313
77, 37888.84, 16192.81, -187500.02, -187500.02, -187500.02, -187500.02, -187500.02, -187500.02, 0.356, 0.704, 0.524, 21:25:20.313, 1541903120313
78, 38191.87, 16548.40, -187500.02, -187500.02, -187500.02, -187500.02, -187500.02, -187500.02, 0.000, 0.000, 0.000, 21:25:20.314, 1541903120314
79, 38542.68, 16973.65, -187500.02, -187500.02, -187500.02, -187500.02, -187500.02, -187500.02, 0.000, 0.000, 0.000, 21:25:20.314, 1541903120314
80, 38176.09, 16541.43, -187500.02, -187500.02, -187500.02, -187500.02, -187500.02, -187500.02, 0.000, 0.000, 0.000, 21:25:20.314, 1541903120314
81, 37885.18, 16193.68, -187500.02, -187500.02, -187500.02, -187500.02, -187500.02, -187500.02, 0.000, 0.000, 0.000, 21:25:20.314, 1541903120314
82, 38105.07, 16460.05, -187500.02, -187500.02, -187500.02, -187500.02, -187500.02, -187500.02, 0.000, 0.000, 0.000, 21:25:20.315, 1541903120315
83, 38530.20, 16980.69, -187500.02, -187500.02, -187500.02, -187500.02, -187500.02, -187500.02, 0.000, 0.000, 0.000, 21:25:20.315, 1541903120315
84, 38265.13, 16661.24, -187500.02, -187500.02, -187500.02, -187500.02, -187500.02, -187500.02, 0.000, 0.000, 0.000, 21:25:20.317, 1541903120317
85, 37907.77, 16229.06, -187500.02, -187500.02, -187500.02, -187500.02, -187500.02, -187500.02, 0.000, 0.000, 0.000, 21:25:20.317, 1541903120317
86, 38026.75, 16364.00, -187500.02, -187500.02, -187500.02, -187500.02, -187500.02, -187500.02, 0.000, 0.000, 0.000, 21:25:20.317, 1541903120317
87, 38502.53, 16910.68, -187500.02, -187500.02, -187500.02, -187500.02, -187500.02, -187500.02, 0.356, 0.704, 0.530, 21:25:20.317, 1541903120317
88, 38359.59, 16739.09, -187500.02, -187500.02, -187500.02, -187500.02, -187500.02, -187500.02, 0.000, 0.000, 0.000, 21:25:20.317, 1541903120317
89, 37935.22, 16237.67, -187500.02, -187500.02, -187500.02, -187500.02, -187500.02, -187500.02, 0.000, 0.000, 0.000, 21:25:20.317, 1541903120317
90, 37961.13, 16278.37, -187500.02, -187500.02, -187500.02, -187500.02, -187500.02, -187500.02, 0.000, 0.000, 0.000, 21:25:20.318, 1541903120318
91, 38413.44, 16818.48, -187500.02, -187500.02, -187500.02, -187500.02, -187500.02, -187500.02, 0.000, 0.000, 0.000, 21:25:20.318, 1541903120318
92, 38436.46, 16840.12, -187500.02, -187500.02, -187500.02, -187500.02, -187500.02, -187500.02, 0.000, 0.000, 0.000, 21:25:20.318, 1541903120318
93, 38000.40, 16316.13, -187500.02, -187500.02, -187500.02, -187500.02, -187500.02, -187500.02, 0.000, 0.000, 0.000, 21:25:20.318, 1541903120318
94, 37938.15, 16247.95, -187500.02, -187500.02, -187500.02, -187500.02, -187500.02, -187500.02, 0.000, 0.000, 0.000, 21:25:20.318, 1541903120318
95, 38352.53, 16741.86, -187500.02, -187500.02, -187500.02, -187500.02, -187500.02, -187500.02, 0.000, 0.000, 0.000, 21:25:20.318, 1541903120318
96, 38481.86, 16896.98, -187500.02, -187500.02, -187500.02, -187500.02, -187500.02, -187500.02, 0.000, 0.000, 0.000, 21:25:20.318, 1541903120318
97, 38031.18, 16361.32, -187500.02, -187500.02, -187500.02, -187500.02, -187500.02, -187500.02, 0.358, 0.710, 0.532, 21:25:20.320, 1541903120320
98, 37882.83, 16179.62, -187500.02, -187500.02, -187500.02, -187500.02, -187500.02, -187500.02, 0.000, 0.000, 0.000, 21:25:20.321, 1541903120321
99, 38258.12, 16623.73, -187500.02, -187500.02, -187500.02, -187500.02, -187500.02, -187500.02, 0.000, 0.000, 0.000, 21:25:20.321, 1541903120321
100, 38547.55, 16967.97, -187500.02, -187500.02, -187500.02, -187500.02, -187500.02, -187500.02, 0.000, 0.000, 0.000, 21:25:20.321, 1541903120321
101, 38129.84, 16463.27, -187500.02, -187500.02, -187500.02, -187500.02, -187500.02, -187500.02, 0.000, 0.000, 0.000, 21:25:20.322, 1541903120322
102, 37891.55, 16182.33, -187500.02, -187500.02, -187500.02, -187500.02, -187500.02, -187500.02, 0.000, 0.000, 0.000, 21:25:20.322, 1541903120322
103, 38174.45, 16526.88, -187500.02, -187500.02, -187500.02, -187500.02, -187500.02, -187500.02, 0.000, 0.000, 0.000, 21:25:20.322, 1541903120322
104, 38542.77, 16974.41, -187500.02, -187500.02, -187500.02, -187500.02, -187500.02, -187500.02, 0.000, 0.000, 0.000, 21:25:20.323, 1541903120323
105, 38205.03, 16547.17, -187500.02, -187500.02, -187500.02, -187500.02, -187500.02, -187500.02, 0.000, 0.000, 0.000, 21:25:20.323, 1541903120323
106, 37906.97, 16186.31, -187500.02, -187500.02, -187500.02, -187500.02, -187500.02, -187500.02, 0.000, 0.000, 0.000, 21:25:20.323, 1541903120323
107, 38091.93, 16421.09, -187500.02, -187500.02, -187500.02, -187500.02, -187500.02, -187500.02, 0.358, 0.708, 0.540, 21:25:20.323, 1541903120323
108, 38525.53, 16940.81, -187500.02, -187500.02, -187500.02, -187500.02, -187500.02, -187500.02, 0.000, 0.000, 0.000, 21:25:20.323, 1541903120323
109, 38289.79, 16642.75, -187500.02, -187500.02, -187500.02, -187500.02, -187500.02, -187500.02, 0.000, 0.000, 0.000, 21:25:20.323, 1541903120323
110, 37927.80, 16199.72, -187500.02, -187500.02, -187500.02, -187500.02, -187500.02, -187500.02, 0.000, 0.000, 0.000, 21:25:20.323, 1541903120323
111, 38038.71, 16333.72, -187500.02, -187500.02, -187500.02, -187500.02, -187500.02, -187500.02, 0.000, 0.000, 0.000, 21:25:20.324, 1541903120324
112, 38502.31, 16890.27, -187500.02, -187500.02, -187500.02, -187500.02, -187500.02, -187500.02, 0.000, 0.000, 0.000, 21:25:20.324, 1541903120324
113, 38383.64, 16742.08, -187500.02, -187500.02, -187500.02, -187500.02, -187500.02, -187500.02, 0.000, 0.000, 0.000, 21:25:20.324, 1541903120324
114, 37973.46, 16249.52, -187500.02, -187500.02, -187500.02, -187500.02, -187500.02, -187500.02, 0.000, 0.000, 0.000, 21:25:20.324, 1541903120324
115, 38002.99, 16291.54, -187500.02, -187500.02, -187500.02, -187500.02, -187500.02, -187500.02, 0.000, 0.000, 0.000, 21:25:20.324, 1541903120324
116, 38456.06, 16832.27, -187500.02, -187500.02, -187500.02, -187500.02, -187500.02, -187500.02, 0.000, 0.000, 0.000, 21:25:20.324, 1541903120324
117, 38494.38, 16851.85, -187500.02, -187500.02, -187500.02, -187500.02, -187500.02, -187500.02, 0.360, 0.704, 0.536, 21:25:20.324, 1541903120324
118, 38043.88, 16310.42, -187500.02, -187500.02, -187500.02, -187500.02, -187500.02, -187500.02, 0.000, 0.000, 0.000, 21:25:20.324, 1541903120324
119, 37952.95, 16235.73, -187500.02, -187500.02, -187500.02, -187500.02, -187500.02, -187500.02, 0.000, 0.000, 0.000, 21:25:20.324, 1541903120324
120, 38352.53, 16721.59, -187500.02, -187500.02, -187500.02, -187500.02, -187500.02, -187500.02, 0.000, 0.000, 0.000, 21:25:20.324, 1541903120324
121, 38519.77, 16907.37, -187500.02, -187500.02, -187500.02, -187500.02, -187500.02, -187500.02, 0.000, 0.000, 0.000, 21:25:20.324, 1541903120324
122, 38092.09, 16378.33, -187500.02, -187500.02, -187500.02, -187500.02, -187500.02, -187500.02, 0.000, 0.000, 0.000, 21:25:20.325, 1541903120325
123, 37934.29, 16192.47, -187500.02, -187500.02, -187500.02, -187500.02, -187500.02, -187500.02, 0.000, 0.000, 0.000, 21:25:20.325, 1541903120325
124, 38270.72, 16605.24, -187500.02, -187500.02, -187500.02, -187500.02, -187500.02, -187500.02, 0.000, 0.000, 0.000, 21:25:20.325, 1541903120325
125, 38557.38, 16955.34, -187500.02, -187500.02, -187500.02, -187500.02, -187500.02, -187500.02, 0.000, 0.000, 0.000, 21:25:20.325, 1541903120325
126, 38159.55, 16461.81, -187500.02, -187500.02, -187500.02, -187500.02, -187500.02, -187500.02, 0.000, 0.000, 0.000, 21:25:20.325, 1541903120325
127, 37910.93, 16169.12, -187500.02, -187500.02, -187500.02, -187500.02, -187500.02, -187500.02, 0.364, 0.700, 0.532, 21:25:20.325, 1541903120325
128, 38179.26, 16497.93, -187500.02, -187500.02, -187500.02, -187500.02, -187500.02, -187500.02, 0.000, 0.000, 0.000, 21:25:20.325, 1541903120325
129, 38587.16, 16984.31, -187500.02, -187500.02, -187500.02, -187500.02, -187500.02, -187500.02, 0.000, 0.000, 0.000, 21:25:20.325, 1541903120325
130, 38255.93, 16579.54, -187500.02, -187500.02, -187500.02, -187500.02, -187500.02, -187500.02, 0.000, 0.000, 0.000, 21:25:20.325, 1541903120325
131, 37932.63, 16191.83, -187500.02, -187500.02, -187500.02, -187500.02, -187500.02, -187500.02, 0.000, 0.000, 0.000, 21:25:20.325, 1541903120325
132, 38096.56, 16399.54, -187500.02, -187500.02, -187500.02, -187500.02, -187500.02, -187500.02, 0.000, 0.000, 0.000, 21:25:20.325, 1541903120325
133, 38538.63, 16927.20, -187500.02, -187500.02, -187500.02, -187500.02, -187500.02, -187500.02, 0.000, 0.000, 0.000, 21:25:20.326, 1541903120326
134, 38319.70, 16651.42, -187500.02, -187500.02, -187500.02, -187500.02, -187500.02, -187500.02, 0.000, 0.000, 0.000, 21:25:20.326, 1541903120326
135, 37940.39, 16206.78, -187500.02, -187500.02, -187500.02, -187500.02, -187500.02, -187500.02, 0.000, 0.000, 0.000, 21:25:20.326, 1541903120326
136, 38038.71, 16336.58, -187500.02, -187500.02, -187500.02, -187500.02, -187500.02, -187500.02, 0.000, 0.000, 0.000, 21:25:20.326, 1541903120326
137, 38517.53, 16906.37, -187500.02, -187500.02, -187500.02, -187500.02, -187500.02, -187500.02, 0.366, 0.702, 0.536, 21:25:20.327, 1541903120327
138, 38414.04, 16788.80, -187500.02, -187500.02, -187500.02, -187500.02, -187500.02, -187500.02, 0.000, 0.000, 0.000, 21:25:20.327, 1541903120327
139, 37986.18, 16265.10, -187500.02, -187500.02, -187500.02, -187500.02, -187500.02, -187500.02, 0.000, 0.000, 0.000, 21:25:20.327, 1541903120327
140, 37992.89, 16265.59, -187500.02, -187500.02, -187500.02, -187500.02, -187500.02, -187500.02, 0.000, 0.000, 0.000, 21:25:20.328, 1541903120328
141, 38438.25, 16797.98, -187500.02, -187500.02, -187500.02, -187500.02, -187500.02, -187500.02, 0.000, 0.000, 0.000, 21:25:20.328, 1541903120328
142, 38484.79, 16850.60, -187500.02, -187500.02, -187500.02, -187500.02, -187500.02, -187500.02, 0.000, 0.000, 0.000, 21:25:20.330, 1541903120330
143, 38045.75, 16323.50, -187500.02, -187500.02, -187500.02, -187500.02, -187500.02, -187500.02, 0.000, 0.000, 0.000, 21:25:20.330, 1541903120330
144, 37955.05, 16225.47, -187500.02, -187500.02, -187500.02, -187500.02, -187500.02, -187500.02, 0.000, 0.000, 0.000, 21:25:20.330, 1541903120330
145, 38352.11, 16709.58, -187500.02, -187500.02, -187500.02, -187500.02, -187500.02, -187500.02, 0.000, 0.000, 0.000, 21:25:20.331, 1541903120331
146, 38527.95, 16929.14, -187500.02, -187500.02, -187500.02, -187500.02, -187500.02, -187500.02, 0.000, 0.000, 0.000, 21:25:20.331, 1541903120331
147, 38089.83, 16387.00, -187500.02, -187500.02, -187500.02, -187500.02, -187500.02, -187500.02, 0.000, 0.000, 0.000, 21:25:20.331, 1541903120331
148, 37914.88, 16183.13, -187500.02, -187500.02, -187500.02, -187500.02, -187500.02, -187500.02, 0.360, 0.704, 0.536, 21:25:20.331, 1541903120331
149, 38253.45, 16588.57, -187500.02, -187500.02, -187500.02, -187500.02, -187500.02, -187500.02, 0.000, 0.000, 0.000, 21:25:20.332, 1541903120332
150, 38565.83, 16962.67, -187500.02, -187500.02, -187500.02, -187500.02, -187500.02, -187500.02, 0.000, 0.000, 0.000, 21:25:20.333, 1541903120333
151, 38179.41, 16501.58, -187500.02, -187500.02, -187500.02, -187500.02, -187500.02, -187500.02, 0.000, 0.000, 0.000, 21:25:20.333, 1541903120333
152, 37923.67, 16197.77, -187500.02, -187500.02, -187500.02, -187500.02, -187500.02, -187500.02, 0.000, 0.000, 0.000, 21:25:20.333, 1541903120333
153, 38173.02, 16495.95, -187500.02, -187500.02, -187500.02, -187500.02, -187500.02, -187500.02, 0.000, 0.000, 0.000, 21:25:20.333, 1541903120333
154, 38593.26, 16961.98, -187500.02, -187500.02, -187500.02, -187500.02, -187500.02, -187500.02, 0.000, 0.000, 0.000, 21:25:20.334, 1541903120334
155, 38277.81, 16577.21, -187500.02, -187500.02, -187500.02, -187500.02, -187500.02, -187500.02, 0.000, 0.000, 0.000, 21:25:20.334, 1541903120334
156, 37921.25, 16186.69, -187500.02, -187500.02, -187500.02, -187500.02, -187500.02, -187500.02, 0.000, 0.000, 0.000, 21:25:20.774, 1541903120774
157, 38075.30, 16404.21, -187500.02, -187500.02, -187500.02, -187500.02, -187500.02, -187500.02, 0.000, 0.000, 0.000, 21:25:20.775, 1541903120775
158, 38526.27, 16944.54, -187500.02, -187500.02, -187500.02, -187500.02, -187500.02, -187500.02, 0.356, 0.704, 0.528, 21:25:20.775, 1541903120775
159, 38302.98, 16686.94, -187500.02, -187500.02, -187500.02, -187500.02, -187500.02, -187500.02, 0.000, 0.000, 0.000, 21:25:20.775, 1541903120775
160, 37909.88, 16204.81, -187500.02, -187500.02, -187500.02, -187500.02, -187500.02, -187500.02, 0.000, 0.000, 0.000, 21:25:20.775, 1541903120775
161, 37989.92, 16299.41, -187500.02, -187500.02, -187500.02, -187500.02, -187500.02, -187500.02, 0.000, 0.000, 0.000, 21:25:20.776, 1541903120776
162, 38455.10, 16866.02, -187500.02, -187500.02, -187500.02, -187500.02, -187500.02, -187500.02, 0.000, 0.000, 0.000, 21:25:20.778, 1541903120778
163, 38394.39, 16785.71, -187500.02, -187500.02, -187500.02, -187500.02, -187500.02, -187500.02, 0.000, 0.000, 0.000, 21:25:20.778, 1541903120778
164, 37951.88, 16271.20, -187500.02, -187500.02, -187500.02, -187500.02, -187500.02, -187500.02, 0.000, 0.000, 0.000, 21:25:20.778, 1541903120778
165, 37937.12, 16261.77, -187500.02, -187500.02, -187500.02, -187500.02, -187500.02, -187500.02, 0.000, 0.000, 0.000, 21:25:20.778, 1541903120778
166, 38378.14, 16788.73, -187500.02, -187500.02, -187500.02, -187500.02, -187500.02, -187500.02, 0.000, 0.000, 0.000, 21:25:20.778, 1541903120778
167, 38470.73, 16875.95, -187500.02, -187500.02, -187500.02, -187500.02, -187500.02, -187500.02, 0.000, 0.000, 0.000, 21:25:20.778, 1541903120778
168, 38020.72, 16332.35, -187500.02, -187500.02, -187500.02, -187500.02, -187500.02, -187500.02, 0.350, 0.714, 0.528, 21:25:20.778, 1541903120778
169, 37903.59, 16216.91, -187500.02, -187500.02, -187500.02, -187500.02, -187500.02, -187500.02, 0.000, 0.000, 0.000, 21:25:20.778, 1541903120778
170, 38297.43, 16687.97, -187500.02, -187500.02, -187500.02, -187500.02, -187500.02, -187500.02, 0.000, 0.000, 0.000, 21:25:20.778, 1541903120778
171, 38513.11, 16945.48, -187500.02, -187500.02, -187500.02, -187500.02, -187500.02, -187500.02, 0.000, 0.000, 0.000, 21:25:20.779, 1541903120779
172, 38083.59, 16418.81, -187500.02, -187500.02, -187500.02, -187500.02, -187500.02, -187500.02, 0.000, 0.000, 0.000, 21:25:20.779, 1541903120779
173, 37917.03, 16209.37, -187500.02, -187500.02, -187500.02, -187500.02, -187500.02, -187500.02, 0.000, 0.000, 0.000, 21:25:20.779, 1541903120779
174, 38229.37, 16586.96, -187500.02, -187500.02, -187500.02, -187500.02, -187500.02, -187500.02, 0.000, 0.000, 0.000, 21:25:20.779, 1541903120779
175, 38552.55, 16983.84, -187500.02, -187500.02, -187500.02, -187500.02, -187500.02, -187500.02, 0.000, 0.000, 0.000, 21:25:20.779, 1541903120779
176, 38165.09, 16519.75, -187500.02, -187500.02, -187500.02, -187500.02, -187500.02, -187500.02, 0.000, 0.000, 0.000, 21:25:20.779, 1541903120779
177, 37907.53, 16205.39, -187500.02, -187500.02, -187500.02, -187500.02, -187500.02, -187500.02, 0.000, 0.000, 0.000, 21:25:20.779, 1541903120779
178, 38162.50, 16508.97, -187500.02, -187500.02, -187500.02, -187500.02, -187500.02, -187500.02, 0.352, 0.714, 0.534, 21:25:20.779, 1541903120779
179, 38585.12, 17010.68, -187500.02, -187500.02, -187500.02, -187500.02, -187500.02, -187500.02, 0.000, 0.000, 0.000, 21:25:20.779, 1541903120779
180, 38270.01, 16628.94, -187500.02, -187500.02, -187500.02, -187500.02, -187500.02, -187500.02, 0.000, 0.000, 0.000, 21:25:20.779, 1541903120779
181, 37917.16, 16210.18, -187500.02, -187500.02, -187500.02, -187500.02, -187500.02, -187500.02, 0.000, 0.000, 0.000, 21:25:20.779, 1541903120779
182, 38078.70, 16396.63, -187500.02, -187500.02, -187500.02, -187500.02, -187500.02, -187500.02, 0.000, 0.000, 0.000, 21:25:20.779, 1541903120779
183, 38540.62, 16959.34, -187500.02, -187500.02, -187500.02, -187500.02, -187500.02, -187500.02, 0.000, 0.000, 0.000, 21:25:20.780, 1541903120780
184, 38346.16, 16730.32, -187500.02, -187500.02, -187500.02, -187500.02, -187500.02, -187500.02, 0.000, 0.000, 0.000, 21:25:20.780, 1541903120780
185, 37966.58, 16259.96, -187500.02, -187500.02, -187500.02, -187500.02, -187500.02, -187500.02, 0.000, 0.000, 0.000, 21:25:20.780, 1541903120780
186, 38041.21, 16348.92, -187500.02, -187500.02, -187500.02, -187500.02, -187500.02, -187500.02, 0.000, 0.000, 0.000, 21:25:20.780, 1541903120780
187, 38487.38, 16906.48, -187500.02, -187500.02, -187500.02, -187500.02, -187500.02, -187500.02, 0.000, 0.000, 0.000, 21:25:20.780, 1541903120780
188, 38418.76, 16840.25, -187500.02, -187500.02, -187500.02, -187500.02, -187500.02, -187500.02, 0.356, 0.712, 0.536, 21:25:20.780, 1541903120780
189, 37993.41, 16331.61, -187500.02, -187500.02, -187500.02, -187500.02, -187500.02, -187500.02, 0.000, 0.000, 0.000, 21:25:20.780, 1541903120780
190, 37971.72, 16288.97, -187500.02, -187500.02, -187500.02, -187500.02, -187500.02, -187500.02, 0.000, 0.000, 0.000, 21:25:20.780, 1541903120780
191, 38415.92, 16801.94, -187500.02, -187500.02, -187500.02, -187500.02, -187500.02, -187500.02, 0.000, 0.000, 0.000, 21:25:20.780, 1541903120780
192, 38514.27, 16922.88, -187500.02, -187500.02, -187500.02, -187500.02, -187500.02, -187500.02, 0.000, 0.000, 0.000, 21:25:20.781, 1541903120781
193, 38052.01, 16391.92, -187500.02, -187500.02, -187500.02, -187500.02, -187500.02, -187500.02, 0.000, 0.000, 0.000, 21:25:20.781, 1541903120781
194, 37931.80, 16248.11, -187500.02, -187500.02, -187500.02, -187500.02, -187500.02, -187500.02, 0.000, 0.000, 0.000, 21:25:20.781, 1541903120781
195, 38318.18, 16689.13, -187500.02, -187500.02, -187500.02, -187500.02, -187500.02, -187500.02, 0.000, 0.000, 0.000, 21:25:20.781, 1541903120781
196, 38572.20, 16969.04, -187500.02, -187500.02, -187500.02, -187500.02, -187500.02, -187500.02, 0.000, 0.000, 0.000, 21:25:20.781, 1541903120781
197, 38144.59, 16466.44, -187500.02, -187500.02, -187500.02, -187500.02, -187500.02, -187500.02, 0.000, 0.000, 0.000, 21:25:20.781, 1541903120781
198, 37918.68, 16207.96, -187500.02, -187500.02, -187500.02, -187500.02, -187500.02, -187500.02, 0.356, 0.712, 0.534, 21:25:20.781, 1541903120781
199, 38222.82, 16580.50, -187500.02, -187500.02, -187500.02, -187500.02, -187500.02, -187500.02, 0.000, 0.000, 0.000, 21:25:20.781, 1541903120781
200, 38562.55, 17006.97, -187500.02, -187500.02, -187500.02, -187500.02, -187500.02, -187500.02, 0.000, 0.000, 0.000, 21:25:20.781, 1541903120781
201, 38180.13, 16549.99, -187500.02, -187500.02, -187500.02, -187500.02, -187500.02, -187500.02, 0.000, 0.000, 0.000, 21:25:20.781, 1541903120781
202, 37905.07, 16233.98, -187500.02, -187500.02, -187500.02, -187500.02, -187500.02, -187500.02, 0.000, 0.000, 0.000, 21:25:20.781, 1541903120781
203, 38144.28, 16519.66, -187500.02, -187500.02, -187500.02, -187500.02, -187500.02, -187500.02, 0.000, 0.000, 0.000, 21:25:20.781, 1541903120781
204, 38561.18, 17022.08, -187500.02, -187500.02, -187500.02, -187500.02, -187500.02, -187500.02, 0.000, 0.000, 0.000, 21:25:20.782, 1541903120782
205, 38276.24, 16669.24, -187500.02, -187500.02, -187500.02, -187500.02, -187500.02, -187500.02, 0.000, 0.000, 0.000, 21:25:20.782, 1541903120782
206, 37946.09, 16268.25, -187500.02, -187500.02, -187500.02, -187500.02, -187500.02, -187500.02, 0.000, 0.000, 0.000, 21:25:20.782, 1541903120782
207, 38095.13, 16461.48, -187500.02, -187500.02, -187500.02, -187500.02, -187500.02, -187500.02, 0.000, 0.000, 0.000, 21:25:20.782, 1541903120782
208, 38553.88, 17008.69, -187500.02, -187500.02, -187500.02, -187500.02, -187500.02, -187500.02, 0.362, 0.716, 0.538, 21:25:20.782, 1541903120782
209, 38390.21, 16786.18, -187500.02, -187500.02, -187500.02, -187500.02, -187500.02, -187500.02, 0.000, 0.000, 0.000, 21:25:20.782, 1541903120782
210, 37969.71, 16285.91, -187500.02, -187500.02, -187500.02, -187500.02, -187500.02, -187500.02, 0.000, 0.000, 0.000, 21:25:20.782, 1541903120782
211, 38026.04, 16371.74, -187500.02, -187500.02, -187500.02, -187500.02, -187500.02, -187500.02, 0.000, 0.000, 0.000, 21:25:20.782, 1541903120782
212, 38486.98, 16924.88, -187500.02, -187500.02, -187500.02, -187500.02, -187500.02, -187500.02, 0.000, 0.000, 0.000, 21:25:20.782, 1541903120782
213, 38458.86, 16872.06, -187500.02, -187500.02, -187500.02, -187500.02, -187500.02, -187500.02, 0.000, 0.000, 0.000, 21:25:20.782, 1541903120782
214, 38024.29, 16344.98, -187500.02, -187500.02, -187500.02, -187500.02, -187500.02, -187500.02, 0.000, 0.000, 0.000, 21:25:20.782, 1541903120782
215, 37977.22, 16317.80, -187500.02, -187500.02, -187500.02, -187500.02, -187500.02, -187500.02, 0.000, 0.000, 0.000, 21:25:20.782, 1541903120782
216, 38396.47, 16827.87, -187500.02, -187500.02, -187500.02, -187500.02, -187500.02, -187500.02, 0.000, 0.000, 0.000, 21:25:20.783, 1541903120783
217, 38505.08, 16945.84, -187500.02, -187500.02, -187500.02, -187500.02, -187500.02, -187500.02, 0.000, 0.000, 0.000, 21:25:20.783, 1541903120783
218, 38068.11, 16404.86, -187500.02, -187500.02, -187500.02, -187500.02, -187500.02, -187500.02, 0.000, 0.000, 0.000, 21:25:20.783, 1541903120783
219, 37937.91, 16256.09, -187500.02, -187500.02, -187500.02, -187500.02, -187500.02, -187500.02, 0.358, 0.708, 0.530, 21:25:20.783, 1541903120783
220, 38314.11, 16718.23, -187500.02, -187500.02, -187500.02, -187500.02, -187500.02, -187500.02, 0.000, 0.000, 0.000, 21:25:20.783, 1541903120783
221, 38571.27, 17024.68, -187500.02, -187500.02, -187500.02, -187500.02, -187500.02, -187500.02, 0.000, 0.000, 0.000, 21:25:20.783, 1541903120783
222, 38153.82, 16520.69, -187500.02, -187500.02, -187500.02, -187500.02, -187500.02, -187500.02, 0.000, 0.000, 0.000, 21:25:20.783, 1541903120783
223, 37926.04, 16251.91, -187500.02, -187500.02, -187500.02, -187500.02, -187500.02, -187500.02, 0.000, 0.000, 0.000, 21:25:20.783, 1541903120783
224, 38230.11, 16611.91, -187500.02, -187500.02, -187500.02, -187500.02, -187500.02, -187500.02, 0.000, 0.000, 0.000, 21:25:20.783, 1541903120783
225, 38596.75, 17040.28, -187500.02, -187500.02, -187500.02, -187500.02, -187500.02, -187500.02, 0.000, 0.000, 0.000, 21:25:20.783, 1541903120783
226, 38236.97, 16596.91, -187500.02, -187500.02, -187500.02, -187500.02, -187500.02, -187500.02, 0.000, 0.000, 0.000, 21:25:20.783, 1541903120783
227, 37942.96, 16256.71, -187500.02, -187500.02, -187500.02, -187500.02, -187500.02, -187500.02, 0.000, 0.000, 0.000, 21:25:20.784, 1541903120784
228, 38147.16, 16513.83, -187500.02, -187500.02, -187500.02, -187500.02, -187500.02, -187500.02, 0.000, 0.000, 0.000, 21:25:20.784, 1541903120784
229, 38578.13, 17032.95, -187500.02, -187500.02, -187500.02, -187500.02, -187500.02, -187500.02, 0.356, 0.708, 0.532, 21:25:20.784, 1541903120784
230, 38304.34, 16705.22, -187500.02, -187500.02, -187500.02, -187500.02, -187500.02, -187500.02, 0.000, 0.000, 0.000, 21:25:20.784, 1541903120784
231, 37954.00, 16276.90, -187500.02, -187500.02, -187500.02, -187500.02, -187500.02, -187500.02, 0.000, 0.000, 0.000, 21:25:20.784, 1541903120784
232, 38071.95, 16423.57, -187500.02, -187500.02, -187500.02, -187500.02, -187500.02, -187500.02, 0.000, 0.000, 0.000, 21:25:20.784, 1541903120784
233, 38529.06, 16972.15, -187500.02, -187500.02, -187500.02, -187500.02, -187500.02, -187500.02, 0.000, 0.000, 0.000, 21:25:20.784, 1541903120784
234, 38385.27, 16790.43, -187500.02, -187500.02, -187500.02, -187500.02, -187500.02, -187500.02, 0.000, 0.000, 0.000, 21:25:20.784, 1541903120784
235, 37985.11, 16308.95, -187500.02, -187500.02, -187500.02, -187500.02, -187500.02, -187500.02, 0.000, 0.000, 0.000, 21:25:20.784, 1541903120784
236, 38035.20, 16381.35, -187500.02, -187500.02, -187500.02, -187500.02, -187500.02, -187500.02, 0.000, 0.000, 0.000, 21:25:20.784, 1541903120784
237, 38484.02, 16923.04, -187500.02, -187500.02, -187500.02, -187500.02, -187500.02, -187500.02, 0.000, 0.000, 0.000, 21:25:20.785, 1541903120785
238, 38478.55, 16906.59, -187500.02, -187500.02, -187500.02, -187500.02, -187500.02, -187500.02, 0.000, 0.000, 0.000, 21:25:20.785, 1541903120785
239, 38022.64, 16364.07, -187500.02, -187500.02, -187500.02, -187500.02, -187500.02, -187500.02, 0.358, 0.716, 0.536, 21:25:20.785, 1541903120785
240, 37965.09, 16303.88, -187500.02, -187500.02, -187500.02, -187500.02, -187500.02, -187500.02, 0.000, 0.000, 0.000, 21:25:20.785, 1541903120785
241, 38408.52, 16830.06, -187500.02, -187500.02, -187500.02, -187500.02, -187500.02, -187500.02, 0.000, 0.000, 0.000, 21:25:20.785, 1541903120785
242, 38548.49, 16994.50, -187500.02, -187500.02, -187500.02, -187500.02, -187500.02, -187500.02, 0.000, 0.000, 0.000, 21:25:20.785, 1541903120785
243, 38092.42, 16430.65, -187500.02, -187500.02, -187500.02, -187500.02, -187500.02, -187500.02, 0.000, 0.000, 0.000, 21:25:20.785, 1541903120785
244, 37938.69, 16250.68, -187500.02, -187500.02, -187500.02, -187500.02, -187500.02, -187500.02, 0.000, 0.000, 0.000, 21:25:20.786, 1541903120786
245, 38305.28, 16695.32, -187500.02, -187500.02, -187500.02, -187500.02, -187500.02, -187500.02, 0.000, 0.000, 0.000, 21:25:20.786, 1541903120786
246, 38562.14, 17012.02, -187500.02, -187500.02, -187500.02, -187500.02, -187500.02, -187500.02, 0.000, 0.000, 0.000, 21:25:20.786, 1541903120786
247, 38147.43, 16505.78, -187500.02, -187500.02, -187500.02, -187500.02, -187500.02, -187500.02, 0.000, 0.000, 0.000, 21:25:20.787, 1541903120787
248, 37942.89, 16246.07, -187500.02, -187500.02, -187500.02, -187500.02, -187500.02, -187500.02, 0.000, 0.000, 0.000, 21:25:20.787, 1541903120787
249, 38222.80, 16596.06, -187500.02, -187500.02, -187500.02, -187500.02, -187500.02, -187500.02, 0.358, 0.714, 0.536, 21:25:20.787, 1541903120787
250, 38581.14, 17047.47, -187500.02, -187500.02, -187500.02, -187500.02, -187500.02, -187500.02, 0.000, 0.000, 0.000, 21:25:20.787, 1541903120787
251, 38239.00, 16619.15, -187500.02, -187500.02, -187500.02, -187500.02, -187500.02, -187500.02, 0.000, 0.000, 0.000, 21:25:20.788, 1541903120788
252, 37942.66, 16269.97, -187500.02, -187500.02, -187500.02, -187500.02, -187500.02, -187500.02, 0.000, 0.000, 0.000, 21:25:20.788, 1541903120788
253, 38141.73, 16510.47, -187500.02, -187500.02, -187500.02, -187500.02, -187500.02, -187500.02, 0.000, 0.000, 0.000, 21:25:20.788, 1541903120788
254, 38568.52, 17017.59, -187500.02, -187500.02, -187500.02, -187500.02, -187500.02, -187500.02, 0.000, 0.000, 0.000, 21:25:20.788, 1541903120788
255, 38298.06, 16710.34, -187500.02, -187500.02, -187500.02, -187500.02, -187500.02, -187500.02, 0.000, 0.000, 0.000, 21:25:20.788, 1541903120788
0, 37933.77, 16271.18, -187500.02, -187500.02, -187500.02, -187500.02, -187500.02, -187500.02, 0.000, 0.000, 0.000, 21:25:20.788, 1541903120788
1, 38054.04, 16404.75, -187500.02, -187500.02, -187500.02, -187500.02, -187500.02, -187500.02, 0.000, 0.000, 0.000, 21:25:20.788, 1541903120788
2, 38519.36, 16965.26, -187500.02, -187500.02, -187500.02, -187500.02, -187500.02, -187500.02, 0.000, 0.000, 0.000, 21:25:20.788, 1541903120788
3, 38401.68, 16828.92, -187500.02, -187500.02, -187500.02, -187500.02, -187500.02, -187500.02, 0.358, 0.710, 0.534, 21:25:20.788, 1541903120788
4, 37994.93, 16329.76, -187500.02, -187500.02, -187500.02, -187500.02, -187500.02, -187500.02, 0.000, 0.000, 0.000, 21:25:20.788, 1541903120788
5, 38004.65, 16346.52, -187500.02, -187500.02, -187500.02, -187500.02, -187500.02, -187500.02, 0.000, 0.000, 0.000, 21:25:20.788, 1541903120788
6, 38450.01, 16889.56, -187500.02, -187500.02, -187500.02, -187500.02, -187500.02, -187500.02, 0.000, 0.000, 0.000, 21:25:20.788, 1541903120788
7, 38464.31, 16902.61, -187500.02, -187500.02, -187500.02, -187500.02, -187500.02, -187500.02, 0.000, 0.000, 0.000, 21:25:20.788, 1541903120788
8, 38006.30, 16364.25, -187500.02, -187500.02, -187500.02, -187500.02, -187500.02, -187500.02, 0.000, 0.000, 0.000, 21:25:20.789, 1541903120789
9, 37946.53, 16301.82, -187500.02, -187500.02, -187500.02, -187500.02, -187500.02, -187500.02, 0.000, 0.000, 0.000, 21:25:20.789, 1541903120789
10, 38365.58, 16798.52, -187500.02, -187500.02, -187500.02, -187500.02, -187500.02, -187500.02, 0.000, 0.000, 0.000, 21:25:20.789, 1541903120789
11, 38519.57, 16984.49, -187500.02, -187500.02, -187500.02, -187500.02, -187500.02, -187500.02, 0.000, 0.000, 0.000, 21:25:20.789, 1541903120789
12, 38078.57, 16448.78, -187500.02, -187500.02, -187500.02, -187500.02, -187500.02, -187500.02, 0.000, 0.000, 0.000, 21:25:20.789, 1541903120789
13, 37928.65, 16272.94, -187500.02, -187500.02, -187500.02, -187500.02, -187500.02, -187500.02, 0.356, 0.710, 0.534, 21:25:20.789, 1541903120789
14, 38292.05, 16704.89, -187500.02, -187500.02, -187500.02, -187500.02, -187500.02, -187500.02, 0.000, 0.000, 0.000, 21:25:20.790, 1541903120790
15, 38586.46, 17068.08, -187500.02, -187500.02, -187500.02, -187500.02, -187500.02, -187500.02, 0.000, 0.000, 0.000, 21:25:20.790, 1541903120790
16, 38175.93, 16561.99, -187500.02, -187500.02, -187500.02, -187500.02, -187500.02, -187500.02, 0.000, 0.000, 0.000, 21:25:20.790, 1541903120790
17, 37937.41, 16269.25, -187500.02, -187500.02, -187500.02, -187500.02, -187500.02, -187500.02, 0.000, 0.000, 0.000, 21:25:20.790, 1541903120790
18, 38199.35, 16601.09, -187500.02, -187500.02, -187500.02, -187500.02, -187500.02, -187500.02, 0.000, 0.000, 0.000, 21:25:20.790, 1541903120790
19, 38577.10, 17072.15, -187500.02, -187500.02, -187500.02, -187500.02, -187500.02, -187500.02, 0.000, 0.000, 0.000, 21:25:20.790, 1541903120790
20, 38245.46, 16663.02, -187500.02, -187500.02, -187500.02, -187500.02, -187500.02, -187500.02, 0.000, 0.000, 0.000, 21:25:21.255, 1541903121255
21, 37941.37, 16302.69, -187500.02, -187500.02, -187500.02, -187500.02, -187500.02, -187500.02, 0.000, 0.000, 0.000, 21:25:21.255, 1541903121255
22, 38119.07, 16525.25, -187500.02, -187500.02, -187500.02, -187500.02, -187500.02, -187500.02, 0.000, 0.000, 0.000, 21:25:21.255, 1541903121255
23, 38557.18, 17052.08, -187500.02, -187500.02, -187500.02, -187500.02, -187500.02, -187500.02, 0.352, 0.706, 0.542, 21:25:21.255, 1541903121255
24, 38323.47, 16769.22, -187500.02, -187500.02, -187500.02, -187500.02, -187500.02, -187500.02, 0.000, 0.000, 0.000, 21:25:21.255, 1541903121255
25, 37953.57, 16317.58, -187500.02, -187500.02, -187500.02, -187500.02, -187500.02, -187500.02, 0.000, 0.000, 0.000, 21:25:21.255, 1541903121255
26, 38043.14, 16426.77, -187500.02, -187500.02, -187500.02, -187500.02, -187500.02, -187500.02, 0.000, 0.000, 0.000, 21:25:21.255, 1541903121255
27, 38517.66, 16998.03, -187500.02, -187500.02, -187500.02, -187500.02, -187500.02, -187500.02, 0.000, 0.000, 0.000, 21:25:21.255, 1541903121255
28, 38419.07, 16877.44, -187500.02, -187500.02, -187500.02, -187500.02, -187500.02, -187500.02, 0.000, 0.000, 0.000, 21:25:21.256, 1541903121256
29, 37985.47, 16373.34, -187500.02, -187500.02, -187500.02, -187500.02, -187500.02, -187500.02, 0.000, 0.000, 0.000, 21:25:21.256, 1541903121256
30, 37981.49, 16389.17, -187500.02, -187500.02, -187500.02, -187500.02, -187500.02, -187500.02, 0.000, 0.000, 0.000, 21:25:21.256, 1541903121256
31, 38437.40, 16939.36, -187500.02, -187500.02, -187500.02, -187500.02, -187500.02, -187500.02, 0.000, 0.000, 0.000, 21:25:21.256, 1541903121256
32, 38478.88, 16969.60, -187500.02, -187500.02, -187500.02, -187500.02, -187500.02, -187500.02, 0.000, 0.000, 0.000, 21:25:21.256, 1541903121256
33, 38046.00, 16426.10, -187500.02, -187500.02, -187500.02, -187500.02, -187500.02, -187500.02, 0.000, 0.000, 0.000, 21:25:21.256, 1541903121256
34, 37968.80, 16330.65, -187500.02, -187500.02, -187500.02, -187500.02, -187500.02, -187500.02, 0.350, 0.706, 0.536, 21:25:21.256, 1541903121256
35, 38377.43, 16818.64, -187500.02, -187500.02, -187500.02, -187500.02, -187500.02, -187500.02, 0.000, 0.000, 0.000, 21:25:21.256, 1541903121256
36, 38549.52, 17024.61, -187500.02, -187500.02, -187500.02, -187500.02, -187500.02, -187500.02, 0.000, 0.000, 0.000, 21:25:21.256, 1541903121256
37, 38100.52, 16486.31, -187500.02, -187500.02, -187500.02, -187500.02, -187500.02, -187500.02, 0.000, 0.000, 0.000, 21:25:21.256, 1541903121256
38, 37924.61, 16281.86, -187500.02, -187500.02, -187500.02, -187500.02, -187500.02, -187500.02, 0.000, 0.000, 0.000, 21:25:21.256, 1541903121256
39, 38261.18, 16696.35, -187500.02, -187500.02, -187500.02, -187500.02, -187500.02, -187500.02, 0.000, 0.000, 0.000, 21:25:21.256, 1541903121256
40, 38559.39, 17067.99, -187500.02, -187500.02, -187500.02, -187500.02, -187500.02, -187500.02, 0.000, 0.000, 0.000, 21:25:21.256, 1541903121256
41, 38172.78, 16593.06, -187500.02, -187500.02, -187500.02, -187500.02, -187500.02, -187500.02, 0.000, 0.000, 0.000, 21:25:21.256, 1541903121256
42, 37926.26, 16284.56, -187500.02, -187500.02, -187500.02, -187500.02, -187500.02, -187500.02, 0.000, 0.000, 0.000, 21:25:21.257, 1541903121257
43, 38179.33, 16582.51, -187500.02, -187500.02, -187500.02, -187500.02, -187500.02, -187500.02, 0.000, 0.000, 0.000, 21:25:21.257, 1541903121257
44, 38581.34, 17057.98, -187500.02, -187500.02, -187500.02, -187500.02, -187500.02, -187500.02, 0.348, 0.708, 0.538, 21:25:21.257, 1541903121257
45, 38262.59, 16663.72, -187500.02, -187500.02, -187500.02, -187500.02, -187500.02, -187500.02, 0.000, 0.000, 0.000, 21:25:21.257, 1541903121257
46, 37927.76, 16273.19, -187500.02, -187500.02, -187500.02, -187500.02, -187500.02, -187500.02, 0.000, 0.000, 0.000, 21:25:21.257, 1541903121257
47, 38109.23, 16491.85, -187500.02, -187500.02, -187500.02, -187500.02, -187500.02, -187500.02, 0.000, 0.000, 0.000, 21:25:21.257, 1541903121257
48, 38568.25, 17040.88, -187500.02, -187500.02, -187500.02, -187500.02, -187500.02, -187500.02, 0.000, 0.000, 0.000, 21:25:21.257, 1541903121257
49, 38349.31, 16777.42, -187500.02, -187500.02, -187500.02, -187500.02, -187500.02, -187500.02, 0.000, 0.000, 0.000, 21:25:21.257, 1541903121257
50, 37946.04, 16302.22, -187500.02, -187500.02, -187500.02, -187500.02, -187500.02, -187500.02, 0.000, 0.000, 0.000, 21:25:21.257, 1541903121257
51, 38019.94, 16404.75, -187500.02, -187500.02, -187500.02, -187500.02, -187500.02, -187500.02, 0.000, 0.000, 0.000, 21:25:21.258, 1541903121258
52, 38499.96, 16972.75, -187500.02, -187500.02, -187500.02, -187500.02, -187500.02, -187500.02, 0.000, 0.000, 0.000, 21:25:21.258, 1541903121258
53, 38413.17, 16859.41, -187500.02, -187500.02, -187500.02, -187500.02, -187500.02, -187500.02, 0.000, 0.000, 0.000, 21:25:21.259, 1541903121259
54, 37986.34, 16348.49, -187500.02, -187500.02, -187500.02, -187500.02, -187500.02, -187500.02, 0.344, 0.704, 0.540, 21:25:21.259, 1541903121259
55, 37985.00, 16352.60, -187500.02, -187500.02, -187500.02, -187500.02, -187500.02, -187500.02, 0.000, 0.000, 0.000, 21:25:21.259, 1541903121259
56, 38443.28, 16896.87, -187500.02, -187500.02, -187500.02, -187500.02, -187500.02, -187500.02, 0.000, 0.000, 0.000, 21:25:21.259, 1541903121259
57, 38520.13, 16964.95, -187500.02, -187500.02, -187500.02, -187500.02, -187500.02, -187500.02, 0.000, 0.000, 0.000, 21:25:21.260, 1541903121260
58, 38052.32, 16393.57, -187500.02, -187500.02, -187500.02, -187500.02, -187500.02, -187500.02, 0.000, 0.000, 0.000, 21:25:21.260, 1541903121260
59, 37943.38, 16270.79, -187500.02, -187500.02, -187500.02, -187500.02, -187500.02, -187500.02, 0.000, 0.000, 0.000, 21:25:21.260, 1541903121260
60, 38352.11, 16751.83, -187500.02, -187500.02, -187500.02, -187500.02, -187500.02, -187500.02, 0.000, 0.000, 0.000, 21:25:21.261, 1541903121261
61, 38572.61, 17006.50, -187500.02, -187500.02, -187500.02, -187500.02, -187500.02, -187500.02, 0.000, 0.000, 0.000, 21:25:21.261, 1541903121261
62, 38134.04, 16472.54, -187500.02, -187500.02, -187500.02, -187500.02, -187500.02, -187500.02, 0.000, 0.000, 0.000, 21:25:21.261, 1541903121261
63, 37939.49, 16245.18, -187500.02, -187500.02, -187500.02, -187500.02, -187500.02, -187500.02, 0.000, 0.000, 0.000, 21:25:21.262, 1541903121262
64, 38266.27, 16626.59, -187500.02, -187500.02, -187500.02, -187500.02, -187500.02, -187500.02, 0.340, 0.706, 0.538, 21:25:21.265, 1541903121265
65, 38586.84, 17003.29, -187500.02, -187500.02, -187500.02, -187500.02, -187500.02, -187500.02, 0.000, 0.000, 0.000, 21:25:21.265, 1541903121265
66, 38188.40, 16527.37, -187500.02, -187500.02, -187500.02, -187500.02, -187500.02, -187500.02, 0.000, 0.000, 0.000, 21:25:21.265, 1541903121265
67, 37914.37, 16206.44, -187500.02, -187500.02, -187500.02, -187500.02, -187500.02, -187500.02, 0.000, 0.000, 0.000, 21:25:21.266, 1541903121266
68, 38173.78, 16510.54, -187500.02, -187500.02, -187500.02, -187500.02, -187500.02, -187500.02, 0.000, 0.000, 0.000, 21:25:21.266, 1541903121266
69, 38590.35, 17005.94, -187500.02, -187500.02, -187500.02, -187500.02, -187500.02, -187500.02, 0.000, 0.000, 0.000, 21:25:21.266, 1541903121266
70, 38282.21, 16644.29, -187500.02, -187500.02, -187500.02, -187500.02, -187500.02, -187500.02, 0.000, 0.000, 0.000, 21:25:21.266, 1541903121266
71, 37949.35, 16235.79, -187500.02, -187500.02, -187500.02, -187500.02, -187500.02, -187500.02, 0.000, 0.000, 0.000, 21:25:21.266, 1541903121266
72, 38097.96, 16411.97, -187500.02, -187500.02, -187500.02, -187500.02, -187500.02, -187500.02, 0.000, 0.000, 0.000, 21:25:21.266, 1541903121266
73, 38542.12, 16947.81, -187500.02, -187500.02, -187500.02, -187500.02, -187500.02, -187500.02, 0.000, 0.000, 0.000, 21:25:21.266, 1541903121266
74, 38349.63, 16716.33, -187500.02, -187500.02, -187500.02, -187500.02, -187500.02, -187500.02, 0.350, 0.706, 0.542, 21:25:21.266, 1541903121266
75, 37959.34, 16246.86, -187500.02, -187500.02, -187500.02, -187500.02, -187500.02, -187500.02, 0.000, 0.000, 0.000, 21:25:21.267, 1541903121267
76, 38039.83, 16337.60, -187500.02, -187500.02, -187500.02, -187500.02, -187500.02, -187500.02, 0.000, 0.000, 0.000, 21:25:21.267, 1541903121267
77, 38500.16, 16890.01, -187500.02, -187500.02, -187500.02, -187500.02, -187500.02, -187500.02, 0.000, 0.000, 0.000, 21:25:21.267, 1541903121267
78, 38444.62, 16823.51, -187500.02, -187500.02, -187500.02, -187500.02, -187500.02, -187500.02, 0.000, 0.000, 0.000, 21:25:21.267, 1541903121267
79, 38006.97, 16299.88, -187500.02, -187500.02, -187500.02, -187500.02, -187500.02, -187500.02, 0.000, 0.000, 0.000, 21:25:21.267, 1541903121267
80, 37985.94, 16276.38, -187500.02, -187500.02, -187500.02, -187500.02, -187500.02, -187500.02, 0.000, 0.000, 0.000, 21:25:21.267, 1541903121267
81, 38421.11, 16805.43, -187500.02, -187500.02, -187500.02, -187500.02, -187500.02, -187500.02, 0.000, 0.000, 0.000, 21:25:21.267, 1541903121267
82, 38508.01, 16904.09, -187500.02, -187500.02, -187500.02, -187500.02, -187500.02, -187500.02, 0.000, 0.000, 0.000, 21:25:21.267, 1541903121267
83, 38049.82, 16357.77, -187500.02, -187500.02, -187500.02, -187500.02, -187500.02, -187500.02, 0.000, 0.000, 0.000, 21:25:21.268, 1541903121268
84, 37943.07, 16240.53, -187500.02, -187500.02, -187500.02, -187500.02, -187500.02, -187500.02, 0.368, 0.712, 0.536, 21:25:21.268, 1541903121268
85, 38332.52, 16705.65, -187500.02, -187500.02, -187500.02, -187500.02, -187500.02, -187500.02, 0.000, 0.000, 0.000, 21:25:21.268, 1541903121268
86, 38543.17, 16963.36, -187500.02, -187500.02, -187500.02, -187500.02, -187500.02, -187500.02, 0.000, 0.000, 0.000, 21:25:21.268, 1541903121268
87, 38121.52, 16453.63, -187500.02, -187500.02, -187500.02, -187500.02, -187500.02, -187500.02, 0.000, 0.000, 0.000, 21:25:21.268, 1541903121268
88, 37938.04, 16238.14, -187500.02, -187500.02, -187500.02, -187500.02, -187500.02, -187500.02, 0.000, 0.000, 0.000, 21:25:21.268, 1541903121268
89, 38256.21, 16603.97, -187500.02, -187500.02, -187500.02, -187500.02, -187500.02, -187500.02, 0.000, 0.000, 0.000, 21:25:21.268, 1541903121268
90, 38587.58, 17001.63, -187500.02, -187500.02, -187500.02, -187500.02, -187500.02, -187500.02, 0.000, 0.000, 0.000, 21:25:21.268, 1541903121268
91, 38202.24, 16529.65, -187500.02, -187500.02, -187500.02, -187500.02, -187500.02, -187500.02, 0.000, 0.000, 0.000, 21:25:21.269, 1541903121269
92, 37927.09, 16201.68, -187500.02, -187500.02, -187500.02, -187500.02, -187500.02, -187500.02, 0.000, 0.000, 0.000, 21:25:21.269, 1541903121269
93, 38158.85, 16489.26, -187500.02, -187500.02, -187500.02, -187500.02, -187500.02, -187500.02, 0.000, 0.000, 0.000, 21:25:21.269, 1541903121269
94, 38572.88, 16993.25, -187500.02, -187500.02, -187500.02, -187500.02, -187500.02, -187500.02, 0.376, 0.708, 0.538, 21:25:21.270, 1541903121270
95, 38275.66, 16633.36, -187500.02, -187500.02, -187500.02, -187500.02, -187500.02, -187500.02, 0.000, 0.000, 0.000, 21:25:21.270, 1541903121270
96, 37937.44, 16235.39, -187500.02, -187500.02, -187500.02, -187500.02, -187500.02, -187500.02, 0.000, 0.000, 0.000, 21:25:21.271, 1541903121271
97, 38082.99, 16413.53, -187500.02, -187500.02, -187500.02, -187500.02, -187500.02, -187500.02, 0.000, 0.000, 0.000, 21:25:21.271, 1541903121271
98, 38546.41, 16955.18, -187500.02, -187500.02, -187500.02, -187500.02, -187500.02, -187500.02, 0.000, 0.000, 0.000, 21:25:21.271, 1541903121271
99, 38372.78, 16741.25, -187500.02, -187500.02, -187500.02, -187500.02, -187500.02, -187500.02, 0.000, 0.000, 0.000, 21:25:21.272, 1541903121272
100, 37962.96, 16250.81, -187500.02, -187500.02, -187500.02, -187500.02, -187500.02, -187500.02, 0.000, 0.000, 0.000, 21:25:21.272, 1541903121272
101, 38008.96, 16311.50, -187500.02, -187500.02, -187500.02, -187500.02, -187500.02, -187500.02, 0.000, 0.000, 0.000, 21:25:21.272, 1541903121272
102, 38473.12, 16865.04, -187500.02, -187500.02, -187500.02, -187500.02, -187500.02, -187500.02, 0.000, 0.000, 0.000, 21:25:21.272, 1541903121272
103, 38460.24, 16841.39, -187500.02, -187500.02, -187500.02, -187500.02, -187500.02, -187500.02, 0.000, 0.000, 0.000, 21:25:21.272, 1541903121272
104, 38020.65, 16320.39, -187500.02, -187500.02, -187500.02, -187500.02, -187500.02, -187500.02, 0.374, 0.702, 0.534, 21:25:21.272, 1541903121272
105, 37970.27, 16284.47, -187500.02, -187500.02, -187500.02, -187500.02, -187500.02, -187500.02, 0.000, 0.000, 0.000, 21:25:21.273, 1541903121273
106, 38401.41, 16789.02, -187500.02, -187500.02, -187500.02, -187500.02, -187500.02, -187500.02, 0.000, 0.000, 0.000, 21:25:21.273, 1541903121273
107, 38507.20, 16897.27, -187500.02, -187500.02, -187500.02, -187500.02, -187500.02, -187500.02, 0.000, 0.000, 0.000, 21:25:21.273, 1541903121273
108, 38065.04, 16353.27, -187500.02, -187500.02, -187500.02, -187500.02, -187500.02, -187500.02, 0.000, 0.000, 0.000, 21:25:21.274, 1541903121274
109, 37935.74, 16209.82, -187500.02, -187500.02, -187500.02, -187500.02, -187500.02, -187500.02, 0.000, 0.000, 0.000, 21:25:21.275, 1541903121275
110, 38309.05, 16668.01, -187500.02, -187500.02, -187500.02, -187500.02, -187500.02, -187500.02, 0.000, 0.000, 0.000, 21:25:21.275, 1541903121275
111, 38555.75, 16956.39, -187500.02, -187500.02, -187500.02, -187500.02, -187500.02, -187500.02, 0.000, 0.000, 0.000, 21:25:21.275, 1541903121275
112, 38136.14, 16455.80, -187500.02, -187500.02, -187500.02, -187500.02, -187500.02, -187500.02, 0.000, 0.000, 0.000, 21:25:21.275, 1541903121275
113, 37930.04, 16217.26, -187500.02, -187500.02, -187500.02, -187500.02, -187500.02, -187500.02, 0.000, 0.000, 0.000, 21:25:21.275, 1541903121275
114, 38244.53, 16584.61, -187500.02, -187500.02, -187500.02, -187500.02, -187500.02, -187500.02, 0.000, 0.000, 0.000, 21:25:21.275, 1541903121275
115, 38583.00, 16989.02, -187500.02, -187500.02, -187500.02, -187500.02, -187500.02, -187500.02, 0.364, 0.702, 0.526, 21:25:21.275, 1541903121275
116, 38213.41, 16530.93, -187500.02, -187500.02, -187500.02, -187500.02, -187500.02, -187500.02, 0.000, 0.000, 0.000, 21:25:21.275, 1541903121275
117, 37927.78, 16193.08, -187500.02, -187500.02, -187500.02, -187500.02, -187500.02, -187500.02, 0.000, 0.000, 0.000, 21:25:21.275, 1541903121275
118, 38138.36, 16458.35, -187500.02, -187500.02, -187500.02, -187500.02, -187500.02, -187500.02, 0.000, 0.000, 0.000, 21:25:21.275, 1541903121275
119, 38571.55, 16979.30, -187500.02, -187500.02, -187500.02, -187500.02, -187500.02, -187500.02, 0.000, 0.000, 0.000, 21:25:21.276, 1541903121276
120, 38283.93, 16620.71, -187500.02, -187500.02, -187500.02, -187500.02, -187500.02, -187500.02, 0.000, 0.000, 0.000, 21:25:21.276, 1541903121276
121, 37925.23, 16182.80, -187500.02, -187500.02, -187500.02, -187500.02, -187500.02, -187500.02, 0.000, 0.000, 0.000, 21:25:21.276, 1541903121276
122, 38064.46, 16348.58, -187500.02, -187500.02, -187500.02, -187500.02, -187500.02, -187500.02, 0.000, 0.000, 0.000, 21:25:21.276, 1541903121276
123, 38536.06, 16916.31, -187500.02, -187500.02, -187500.02, -187500.02, -187500.02, -187500.02, 0.000, 0.000, 0.000, 21:25:21.276, 1541903121276
124, 38379.38, 16716.76, -187500.02, -187500.02, -187500.02, -187500.02, -187500.02, -187500.02, 0.000, 0.000, 0.000, 21:25:21.276, 1541903121276
125, 37979.50, 16239.77, -187500.02, -187500.02, -187500.02, -187500.02, -187500.02, -187500.02, 0.364, 0.710, 0.526, 21:25:21.276, 1541903121276
126, 38018.08, 16293.84, -187500.02, -187500.02, -187500.02, -187500.02, -187500.02, -187500.02, 0.000, 0.000, 0.000, 21:25:21.276, 1541903121276
127, 38481.86, 16859.63, -187500.02, -187500.02, -187500.02, -187500.02, -187500.02, -187500.02, 0.000, 0.000, 0.000, 21:25:21.276, 1541903121276
128, 38481.75, 16855.90, -187500.02, -187500.02, -187500.02, -187500.02, -187500.02, -187500.02, 0.000, 0.000, 0.000, 21:25:21.276, 1541903121276
129, 38035.96, 16298.87, -187500.02, -187500.02, -187500.02, -187500.02, -187500.02, -187500.02, 0.000, 0.000, 0.000, 21:25:21.276, 1541903121276
130, 37964.32, 16225.91, -187500.02, -187500.02, -187500.02, -187500.02, -187500.02, -187500.02, 0.000, 0.000, 0.000, 21:25:21.276, 1541903121276
131, 38382.68, 16739.09, -187500.02, -187500.02, -187500.02, -187500.02, -187500.02, -187500.02, 0.000, 0.000, 0.000, 21:25:21.276, 1541903121276
132, 38515.18, 16902.01, -187500.02, -187500.02, -187500.02, -187500.02, -187500.02, -187500.02, 0.000, 0.000, 0.000, 21:25:21.276, 1541903121276
133, 38071.48, 16361.66, -187500.02, -187500.02, -187500.02, -187500.02, -187500.02, -187500.02, 0.000, 0.000, 0.000, 21:25:21.276, 1541903121276
134, 37940.43, 16203.38, -187500.02, -187500.02, -187500.02, -187500.02, -187500.02, -187500.02, 0.000, 0.000, 0.000, 21:25:21.277, 1541903121277
135, 38315.79, 16649.50, -187500.02, -187500.02, -187500.02, -187500.02, -187500.02, -187500.02, 0.362, 0.716, 0.520, 21:25:21.277, 1541903121277
136, 38580.99, 16962.20, -187500.02, -187500.02, -187500.02, -187500.02, -187500.02, -187500.02, 0.000, 0.000, 0.000, 21:25:21.277, 1541903121277
137, 38154.14, 16442.81, -187500.02, -187500.02, -187500.02, -187500.02, -187500.02, -187500.02, 0.000, 0.000, 0.000, 21:25:21.277, 1541903121277
138, 37938.64, 16192.99, -187500.02, -187500.02, -187500.02, -187500.02, -187500.02, -187500.02, 0.000, 0.000, 0.000, 21:25:21.277, 1541903121277
139, 38228.23, 16552.27, -187500.02, -187500.02, -187500.02, -187500.02, -187500.02, -187500.02, 0.000, 0.000, 0.000, 21:25:21.277, 1541903121277
140, 38604.50, 16994.79, -187500.02, -187500.02, -187500.02, -187500.02, -187500.02, -187500.02, 0.000, 0.000, 0.000, 21:25:21.277, 1541903121277
141, 38243.14, 16549.21, -187500.02, -187500.02, -187500.02, -187500.02, -187500.02, -187500.02, 0.000, 0.000, 0.000, 21:25:21.443, 1541903121443
142, 37937.91, 16194.17, -187500.02, -187500.02, -187500.02, -187500.02, -187500.02, -187500.02, 0.000, 0.000, 0.000, 21:25:21.443, 1541903121443
143, 38149.69, 16448.20, -187500.02, -187500.02, -187500.02, -187500.02, -187500.02, -187500.02, 0.000, 0.000, 0.000, 21:25:21.443, 1541903121443
144, 38575.33, 16959.01, -187500.02, -187500.02, -187500.02, -187500.02, -187500.02, -187500.02, 0.000, 0.000, 0.000, 21:25:21.443, 1541903121443
145, 38320.72, 16641.14, -187500.02, -187500.02, -187500.02, -187500.02, -187500.02, -187500.02, 0.364, 0.720, 0.516, 21:25:21.443, 1541903121443
146, 37970.89, 16214.00, -187500.02, -187500.02, -187500.02, -187500.02, -187500.02, -187500.02, 0.000, 0.000, 0.000, 21:25:21.443, 1541903121443
147, 38086.05, 16361.32, -187500.02, -187500.02, -187500.02, -187500.02, -187500.02, -187500.02, 0.000, 0.000, 0.000, 21:25:21.443, 1541903121443
148, 38547.68, 16917.23, -187500.02, -187500.02, -187500.02, -187500.02, -187500.02, -187500.02, 0.000, 0.000, 0.000, 21:25:21.444, 1541903121444
149, 38409.57, 16741.30, -187500.02, -187500.02, -187500.02, -187500.02, -187500.02, -187500.02, 0.000, 0.000, 0.000, 21:25:21.444, 1541903121444
150, 37980.82, 16222.14, -187500.02, -187500.02, -187500.02, -187500.02, -187500.02, -187500.02, 0.000, 0.000, 0.000, 21:25:21.444, 1541903121444
151, 37997.61, 16252.31, -187500.02, -187500.02, -187500.02, -187500.02, -187500.02, -187500.02, 0.000, 0.000, 0.000, 21:25:21.444, 1541903121444
152, 38453.70, 16803.77, -187500.02, -187500.02, -187500.02, -187500.02, -187500.02, -187500.02, 0.000, 0.000, 0.000, 21:25:21.444, 1541903121444
153, 38471.15, 16815.11, -187500.02, -187500.02, -187500.02, -187500.02, -187500.02, -187500.02, 0.000, 0.000, 0.000, 21:25:21.444, 1541903121444
154, 38034.13, 16289.12, -187500.02, -187500.02, -187500.02, -187500.02, -187500.02, -187500.02, 0.000, 0.000, 0.000, 21:25:21.444, 1541903121444
155, 37977.04, 16233.92, -187500.02, -187500.02, -187500.02, -187500.02, -187500.02, -187500.02, 0.370, 0.714, 0.528, 21:25:21.444, 1541903121444
156, 38397.23, 16735.91, -187500.02, -187500.02, -187500.02, -187500.02, -187500.02, -187500.02, 0.000, 0.000, 0.000, 21:25:21.444, 1541903121444
157, 38538.56, 16908.07, -187500.02, -187500.02, -187500.02, -187500.02, -187500.02, -187500.02, 0.000, 0.000, 0.000, 21:25:21.444, 1541903121444
158, 38088.69, 16374.73, -187500.02, -187500.02, -187500.02, -187500.02, -187500.02, -187500.02, 0.000, 0.000, 0.000, 21:25:21.444, 1541903121444
159, 37936.47, 16196.59, -187500.02, -187500.02, -187500.02, -187500.02, -187500.02, -187500.02, 0.000, 0.000, 0.000, 21:25:21.444, 1541903121444
160, 38295.09, 16616.69, -187500.02, -187500.02, -187500.02, -187500.02, -187500.02, -187500.02, 0.000, 0.000, 0.000, 21:25:21.444, 1541903121444
161, 38584.59, 16940.39, -187500.02, -187500.02, -187500.02, -187500.02, -187500.02, -187500.02, 0.000, 0.000, 0.000, 21:25:21.445, 1541903121445
162, 38169.02, 16437.63, -187500.02, -187500.02, -187500.02, -187500.02, -187500.02, -187500.02, 0.000, 0.000, 0.000, 21:25:21.445, 1541903121445
163, 37931.98, 16175.15, -187500.02, -187500.02, -187500.02, -187500.02, -187500.02, -187500.02, 0.000, 0.000, 0.000, 21:25:21.445, 1541903121445
164, 38201.34, 16501.91, -187500.02, -187500.02, -187500.02, -187500.02, -187500.02, -187500.02, 0.000, 0.000, 0.000, 21:25:21.445, 1541903121445
165, 38569.10, 16949.01, -187500.02, -187500.02, -187500.02, -187500.02, -187500.02, -187500.02, 0.368, 0.714, 0.532, 21:25:21.445, 1541903121445
166, 38234.11, 16538.95, -187500.02, -187500.02, -187500.02, -187500.02, -187500.02, -187500.02, 0.000, 0.000, 0.000, 21:25:21.445, 1541903121445
167, 37946.53, 16190.73, -187500.02, -187500.02, -187500.02, -187500.02, -187500.02, -187500.02, 0.000, 0.000, 0.000, 21:25:21.445, 1541903121445
168, 38148.66, 16429.36, -187500.02, -187500.02, -187500.02, -187500.02, -187500.02, -187500.02, 0.000, 0.000, 0.000, 21:25:21.445, 1541903121445
169, 38582.51, 16955.38, -187500.02, -187500.02, -187500.02, -187500.02, -187500.02, -187500.02, 0.000, 0.000, 0.000, 21:25:21.445, 1541903121445
170, 38338.74, 16658.84, -187500.02, -187500.02, -187500.02, -187500.02, -187500.02, -187500.02, 0.000, 0.000, 0.000, 21:25:21.445, 1541903121445
171, 37963.61, 16214.02, -187500.02, -187500.02, -187500.02, -187500.02, -187500.02, -187500.02, 0.000, 0.000, 0.000, 21:25:21.446, 1541903121446
172, 38062.76, 16349.36, -187500.02, -187500.02, -187500.02, -187500.02, -187500.02, -187500.02, 0.000, 0.000, 0.000, 21:25:21.446, 1541903121446
173, 38521.91, 16885.56, -187500.02, -187500.02, -187500.02, -187500.02, -187500.02, -187500.02, 0.000, 0.000, 0.000, 21:25:21.446, 1541903121446
174, 38405.48, 16733.59, -187500.02, -187500.02, -187500.02, -187500.02, -187500.02, -187500.02, 0.000, 0.000, 0.000, 21:25:21.446, 1541903121446
175, 37997.47, 16231.75, -187500.02, -187500.02, -187500.02, -187500.02, -187500.02, -187500.02, 0.364, 0.708, 0.528, 21:25:21.446, 1541903121446
176, 38013.68, 16271.53, -187500.02, -187500.02, -187500.02, -187500.02, -187500.02, -187500.02, 0.000, 0.000, 0.000, 21:25:21.446, 1541903121446
177, 38439.55, 16802.12, -187500.02, -187500.02, -187500.02, -187500.02, -187500.02, -187500.02, 0.000, 0.000, 0.000, 21:25:21.447, 1541903121447
178, 38449.43, 16807.60, -187500.02, -187500.02, -187500.02, -187500.02, -187500.02, -187500.02, 0.000, 0.000, 0.000, 21:25:21.447, 1541903121447
179, 38010.55, 16282.31, -187500.02, -187500.02, -187500.02, -187500.02, -187500.02, -187500.02, 0.000, 0.000, 0.000, 21:25:21.447, 1541903121447
180, 37928.41, 16208.68, -187500.02, -187500.02, -187500.02, -187500.02, -187500.02, -187500.02, 0.000, 0.000, 0.000, 21:25:21.447, 1541903121447
181, 38330.40, 16700.35, -187500.02, -187500.02, -187500.02, -187500.02, -187500.02, -187500.02, 0.000, 0.000, 0.000, 21:25:21.447, 1541903121447
182, 38493.57, 16909.27, -187500.02, -187500.02, -187500.02, -187500.02, -187500.02, -187500.02, 0.000, 0.000, 0.000, 21:25:21.447, 1541903121447
183, 38050.45, 16388.39, -187500.02, -187500.02, -187500.02, -187500.02, -187500.02, -187500.02, 0.000, 0.000, 0.000, 21:25:21.447, 1541903121447
0, 0.00, 0.00, 0.00, 0.00, 0.00, 0.00, 0.00, 0.00, 0.366, 0.712, 0.528, 21:25:21.447, 1541903121447
1, 38079.04, 16421.96, 0.00, -187500.02, -187500.02, -187500.02, -187500.02, -187500.02, 0.000, 0.000, 0.000, 21:25:21.676, 1541903121676
2, 37870.56, 16180.76, 0.00, -187500.02, -187500.02, -187500.02, -187500.02, -187500.02, 0.000, 0.000, 0.000, 21:25:21.676, 1541903121676
3, 38171.23, 16544.07, 0.00, -187500.02, -187500.02, -187500.02, -187500.02, -187500.02, 0.000, 0.000, 0.000, 21:25:21.677, 1541903121677
4, 38545.49, 16994.14, 0.00, -187500.02, -187500.02, -187500.02, -187500.02, -187500.02, 0.000, 0.000, 0.000, 21:25:21.677, 1541903121677
5, 38211.51, 16577.86, 0.00, -187500.02, -187500.02, -187500.02, -187500.02, -187500.02, 0.000, 0.000, 0.000, 21:25:21.678, 1541903121678
6, 37914.91, 16227.90, 0.00, -187500.02, -187500.02, -187500.02, -187500.02, -187500.02, 0.370, 0.704, 0.528, 21:25:21.678, 1541903121678
7, 38116.34, 16477.28, 0.00, -187500.02, -187500.02, -187500.02, -187500.02, -187500.02, 0.000, 0.000, 0.000, 21:25:21.679, 1541903121679
8, 38550.36, 16993.43, 0.00, -187500.02, -187500.02, -187500.02, -187500.02, -187500.02, 0.000, 0.000, 0.000, 21:25:21.679, 1541903121679
9, 38297.48, 16682.65, 0.00, -187500.02, -187500.02, -187500.02, -187500.02, -187500.02, 0.000, 0.000, 0.000, 21:25:21.680, 1541903121680
10, 37937.79, 16249.74, 0.00, -187500.02, -187500.02, -187500.02, -187500.02, -187500.02, 0.000, 0.000, 0.000, 21:25:21.680, 1541903121680
11, 38055.41, 16387.07, 0.00, -187500.02, -187500.02, -187500.02, -187500.02, -187500.02, 0.000, 0.000, 0.000, 21:25:21.680, 1541903121680
12, 38502.89, 16932.34, 0.00, -187500.02, -187500.02, -187500.02, -187500.02, -187500.02, 0.000, 0.000, 0.000, 21:25:21.680, 1541903121680
13, 38369.59, 16770.36, 0.00, -187500.02, -187500.02, -187500.02, -187500.02, -187500.02, 0.000, 0.000, 0.000, 21:25:21.681, 1541903121681
14, 37960.39, 16274.39, 0.00, -187500.02, -187500.02, -187500.02, -187500.02, -187500.02, 0.000, 0.000, 0.000, 21:25:21.681, 1541903121681
15, 37981.60, 16310.83, 0.00, -187500.02, -187500.02, -187500.02, -187500.02, -187500.02, 0.000, 0.000, 0.000, 21:25:21.681, 1541903121681
16, 38418.89, 16849.21, 0.00, -187500.02, -187500.02, -187500.02, -187500.02, -187500.02, 0.372, 0.704, 0.526, 21:25:21.681, 1541903121681
17, 38434.09, 16859.36, 0.00, -187500.02, -187500.02, -187500.02, -187500.02, -187500.02, 0.000, 0.000, 0.000, 21:25:21.681, 1541903121681
18, 38001.14, 16340.49, 0.00, -187500.02, -187500.02, -187500.02, -187500.02, -187500.02, 0.000, 0.000, 0.000, 21:25:21.681, 1541903121681
19, 37932.81, 16271.31, 0.00, -187500.02, -187500.02, -187500.02, -187500.02, -187500.02, 0.000, 0.000, 0.000, 21:25:21.681, 1541903121681
20, 38332.32, 16747.31, 0.00, -187500.02, -187500.02, -187500.02, -187500.02, -187500.02, 0.000, 0.000, 0.000, 21:25:21.681, 1541903121681
21, 38503.96, 16937.12, 0.00, -187500.02, -187500.02, -187500.02, -187500.02, -187500.02, 0.000, 0.000, 0.000, 21:25:21.681, 1541903121681
22, 38072.62, 16414.45, 0.00, -187500.02, -187500.02, -187500.02, -187500.02, -187500.02, 0.000, 0.000, 0.000, 21:25:21.681, 1541903121681
23, 37914.41, 16233.09, 0.00, -187500.02, -187500.02, -187500.02, -187500.02, -187500.02, 0.000, 0.000, 0.000, 21:25:21.681, 1541903121681
24, 38261.13, 16651.29, 0.00, -187500.02, -187500.02, -187500.02, -187500.02, -187500.02, 0.000, 0.000, 0.000, 21:25:21.682, 1541903121682
25, 38541.25, 16994.23, 0.00, -187500.02, -187500.02, -187500.02, -187500.02, -187500.02, 0.000, 0.000, 0.000, 21:25:21.682, 1541903121682
26, 38136.14, 16507.30, 0.00, -187500.02, -187500.02, -187500.02, -187500.02, -187500.02, 0.366, 0.706, 0.528, 21:25:21.682, 1541903121682
27, 37897.00, 16212.73, 0.00, -187500.02, -187500.02, -187500.02, -187500.02, -187500.02, 0.000, 0.000, 0.000, 21:25:21.682, 1541903121682
28, 38164.26, 16538.84, 0.00, -187500.02, -187500.02, -187500.02, -187500.02, -187500.02, 0.000, 0.000, 0.000, 21:25:21.682, 1541903121682
29, 38548.62, 16995.57, 0.00, -187500.02, -187500.02, -187500.02, -187500.02, -187500.02, 0.000, 0.000, 0.000, 21:25:21.682, 1541903121682
30, 38220.59, 16592.01, 0.00, -187500.02, -187500.02, -187500.02, -187500.02, -187500.02, 0.000, 0.000, 0.000, 21:25:21.682, 1541903121682
31, 37918.79, 16246.83, 0.00, -187500.02, -187500.02, -187500.02, -187500.02, -187500.02, 0.000, 0.000, 0.000, 21:25:21.682, 1541903121682
32, 38097.43, 16475.43, 0.00, -187500.02, -187500.02, -187500.02, -187500.02, -187500.02, 0.000, 0.000, 0.000, 21:25:21.682, 1541903121682
33, 38525.44, 16982.07, 0.00, -187500.02, -187500.02, -187500.02, -187500.02, -187500.02, 0.000, 0.000, 0.000, 21:25:21.682, 1541903121682
34, 38293.43, 16678.07, 0.00, -187500.02, -187500.02, -187500.02, -187500.02, -187500.02, 0.000, 0.000, 0.000, 21:25:21.682, 1541903121682
35, 37934.73, 16243.30, 0.00, -187500.02, -187500.02, -187500.02, -187500.02, -187500.02, 0.000, 0.000, 0.000, 21:25:21.683, 1541903121683
36, 38028.61, 16363.85, 0.00, -187500.02, -187500.02, -187500.02, -187500.02, -187500.02, 0.364, 0.712, 0.530, 21:25:21.683, 1541903121683
37, 38476.92, 16909.83, 0.00, -187500.02, -187500.02, -187500.02, -187500.02, -187500.02, 0.000, 0.000, 0.000, 21:25:21.683, 1541903121683
38, 38379.08, 16790.65, 0.00, -187500.02, -187500.02, -187500.02, -187500.02, -187500.02, 0.000, 0.000, 0.000, 21:25:21.683, 1541903121683
39, 37960.66, 16300.48, 0.00, -187500.02, -187500.02, -187500.02, -187500.02, -187500.02, 0.000, 0.000, 0.000, 21:25:21.683, 1541903121683
40, 37962.05, 16314.56, 0.00, -187500.02, -187500.02, -187500.02, -187500.02, -187500.02, 0.000, 0.000, 0.000, 21:25:21.683, 1541903121683
41, 38399.80, 16841.23, 0.00, -187500.02, -187500.02, -187500.02, -187500.02, -187500.02, 0.000, 0.000, 0.000, 21:25:21.683, 1541903121683
42, 38436.24, 16868.71, 0.00, -187500.02, -187500.02, -187500.02, -187500.02, -187500.02, 0.000, 0.000, 0.000, 21:25:21.683, 1541903121683
43, 38001.16, 16330.72, 0.00, -187500.02, -187500.02, -187500.02, -187500.02, -187500.02, 0.000, 0.000, 0.000, 21:25:21.683, 1541903121683
44, 37917.09, 16240.69, 0.00, -187500.02, -187500.02, -187500.02, -187500.02, -187500.02, 0.000, 0.000, 0.000, 21:25:21.683, 1541903121683
45, 38317.13, 16740.43, 0.00, -187500.02, -187500.02, -187500.02, -187500.02, -187500.02, 0.000, 0.000, 0.000, 21:25:21.683, 1541903121683
46, 38491.34, 16933.66, 0.00, -187500.02, -187500.02, -187500.02, -187500.02, -187500.02, 0.356, 0.716, 0.534, 21:25:21.683, 1541903121683
47, 38055.43, 16388.05, 0.00, -187500.02, -187500.02, -187500.02, -187500.02, -187500.02, 0.000, 0.000, 0.000, 21:25:21.684, 1541903121684
48, 37890.21, 16189.19, 0.00, -187500.02, -187500.02, -187500.02, -187500.02, -187500.02, 0.000, 0.000, 0.000, 21:25:21.684, 1541903121684
49, 38236.75, 16610.83, 0.00, -187500.02, -187500.02, -187500.02, -187500.02, -187500.02, 0.000, 0.000, 0.000, 21:25:21.684, 1541903121684
50, 38527.43, 16982.05, 0.00, -187500.02, -187500.02, -187500.02, -187500.02, -187500.02, 0.000, 0.000, 0.000, 21:25:21.684, 1541903121684
51, 38121.50, 16503.43, 0.00, -187500.02, -187500.02, -187500.02, -187500.02, -187500.02, 0.000, 0.000, 0.000, 21:25:21.684, 1541903121684
52, 37875.12, 16207.88, 0.00, -187500.02, -187500.02, -187500.02, -187500.02, -187500.02, 0.000, 0.000, 0.000, 21:25:21.684, 1541903121684
54, 38518.31, 16980.31, 0.00, -187500.02, -187500.02, -187500.02, -187500.02, -187500.02, 0.000, 0.000, 0.000, 21:25:21.684, 1541903121684
74, 38193.63, 16588.59, 0.00, -187500.02, -187500.02, -187500.02, -187500.02, -187500.02, 0.000, 0.000, 0.000, 21:25:21.768, 1541903121768
75, 38502.93, 16958.89, 0.00, -187500.02, -187500.02, -187500.02, -187500.02, -187500.02, 0.000, 0.000, 0.000, 21:25:21.772, 1541903121772
0, 0.00, 0.00, 0.00, 0.00, 0.00, 0.00, 0.00, 0.00, 0.358, 0.708, 0.526, 21:25:21.784, 1541903121784
1, 38447.93, 16900.91, 0.00, 0.00, -187500.02, -187500.02, -187500.02, -187500.02, 0.000, 0.000, 0.000, 21:25:22.041, 1541903122041
2, 38206.24, 16590.92, 0.00, 0.00, -187500.02, -187500.02, -187500.02, -187500.02, 0.000, 0.000, 0.000, 21:25:22.041, 1541903122041
3, 37882.92, 16201.57, 0.00, 0.00, -187500.02, -187500.02, -187500.02, -187500.02, 0.000, 0.000, 0.000, 21:25:22.041, 1541903122041
4, 38003.35, 16363.69, 0.00, 0.00, -187500.02, -187500.02, -187500.02, -187500.02, 0.000, 0.000, 0.000, 21:25:22.041, 1541903122041
5, 38446.96, 16906.30, 0.00, 0.00, -187500.02, -187500.02, -187500.02, -187500.02, 0.356, 0.714, 0.522, 21:25:22.041, 1541903122041
6, 38311.43, 16732.83, 0.00, 0.00, -187500.02, -187500.02, -187500.02, -187500.02, 0.000, 0.000, 0.000, 21:25:22.041, 1541903122041
7, 37927.55, 16259.75, 0.00, 0.00, -187500.02, -187500.02, -187500.02, -187500.02, 0.000, 0.000, 0.000, 21:25:22.041, 1541903122041
8, 37964.53, 16312.44, 0.00, 0.00, -187500.02, -187500.02, -187500.02, -187500.02, 0.000, 0.000, 0.000, 21:25:22.041, 1541903122041
9, 38407.49, 16843.18, 0.00, 0.00, -187500.02, -187500.02, -187500.02, -187500.02, 0.000, 0.000, 0.000, 21:25:22.041, 1541903122041
10, 38401.37, 16819.02, 0.00, 0.00, -187500.02, -187500.02, -187500.02, -187500.02, 0.000, 0.000, 0.000, 21:25:22.041, 1541903122041
11, 37980.33, 16309.78, 0.00, 0.00, -187500.02, -187500.02, -187500.02, -187500.02, 0.000, 0.000, 0.000, 21:25:22.041, 1541903122041
12, 37932.65, 16259.49, 0.00, 0.00, -187500.02, -187500.02, -187500.02, -187500.02, 0.000, 0.000, 0.000, 21:25:22.041, 1541903122041
13, 38328.30, 16743.74, 0.00, 0.00, -187500.02, -187500.02, -187500.02, -187500.02, 0.000, 0.000, 0.000, 21:25:22.041, 1541903122041
14, 38446.90, 16894.97, 0.00, 0.00, -187500.02, -187500.02, -187500.02, -187500.02, 0.000, 0.000, 0.000, 21:25:22.041, 1541903122041
15, 38018.17, 16376.18, 0.00, 0.00, -187500.02, -187500.02, -187500.02, -187500.02, 0.364, 0.714, 0.518, 21:25:22.041, 1541903122041
16, 37887.57, 16221.62, 0.00, 0.00, -187500.02, -187500.02, -187500.02, -187500.02, 0.000, 0.000, 0.000, 21:25:22.042, 1541903122042
17, 38245.22, 16648.76, 0.00, 0.00, -187500.02, -187500.02, -187500.02, -187500.02, 0.000, 0.000, 0.000, 21:25:22.042, 1541903122042
18, 38496.97, 16962.83, 0.00, 0.00, -187500.02, -187500.02, -187500.02, -187500.02, 0.000, 0.000, 0.000, 21:25:22.042, 1541903122042
19, 38092.29, 16463.47, 0.00, 0.00, -187500.02, -187500.02, -187500.02, -187500.02, 0.000, 0.000, 0.000, 21:25:22.042, 1541903122042
20, 37872.57, 16201.97, 0.00, 0.00, -187500.02, -187500.02, -187500.02, -187500.02, 0.000, 0.000, 0.000, 21:25:22.042, 1541903122042
21, 38153.06, 16542.75, 0.00, 0.00, -187500.02, -187500.02, -187500.02, -187500.02, 0.000, 0.000, 0.000, 21:25:22.042, 1541903122042
22, 38508.95, 16959.45, 0.00, 0.00, -187500.02, -187500.02, -187500.02, -187500.02, 0.000, 0.000, 0.000, 21:25:22.042, 1541903122042
23, 38175.79, 16536.51, 0.00, 0.00, -187500.02, -187500.02, -187500.02, -187500.02, 0.000, 0.000, 0.000, 21:25:22.042, 1541903122042
24, 37890.86, 16200.52, 0.00, 0.00, -187500.02, -187500.02, -187500.02, -187500.02, 0.000, 0.000, 0.000, 21:25:22.042, 1541903122042
25, 38074.21, 16431.15, 0.00, 0.00, -187500.02, -187500.02, -187500.02, -187500.02, 0.364, 0.718, 0.520, 21:25:22.042, 1541903122042
26, 38484.54, 16933.32, 0.00, 0.00, -187500.02, -187500.02, -187500.02, -187500.02, 0.000, 0.000, 0.000, 21:25:22.042, 1541903122042
27, 38235.21, 16639.29, 0.00, 0.00, -187500.02, -187500.02, -187500.02, -187500.02, 0.000, 0.000, 0.000, 21:25:22.042, 1541903122042
28, 37891.93, 16223.54, 0.00, 0.00, -187500.02, -187500.02, -187500.02, -187500.02, 0.000, 0.000, 0.000, 21:25:22.042, 1541903122042
29, 38004.36, 16355.62, 0.00, 0.00, -187500.02, -187500.02, -187500.02, -187500.02, 0.000, 0.000, 0.000, 21:25:22.042, 1541903122042
30, 38461.52, 16892.73, 0.00, 0.00, -187500.02, -187500.02, -187500.02, -187500.02, 0.000, 0.000, 0.000, 21:25:22.042, 1541903122042
31, 38344.24, 16734.77, 0.00, 0.00, -187500.02, -187500.02, -187500.02, -187500.02, 0.000, 0.000, 0.000, 21:25:22.042, 1541903122042
32, 37931.27, 16247.77, 0.00, 0.00, -187500.02, -187500.02, -187500.02, -187500.02, 0.000, 0.000, 0.000, 21:25:22.042, 1541903122042
33, 37943.18, 16280.92, 0.00, 0.00, -187500.02, -187500.02, -187500.02, -187500.02, 0.000, 0.000, 0.000, 21:25:22.042, 1541903122042
34, 38372.51, 16809.49, 0.00, 0.00, -187500.02, -187500.02, -187500.02, -187500.02, 0.000, 0.000, 0.000, 21:25:22.042, 1541903122042
35, 38393.12, 16812.31, 0.00, 0.00, -187500.02, -187500.02, -187500.02, -187500.02, 0.366, 0.708, 0.528, 21:25:22.043, 1541903122043
36, 37974.14, 16307.90, 0.00, 0.00, -187500.02, -187500.02, -187500.02, -187500.02, 0.000, 0.000, 0.000, 21:25:22.043, 1541903122043
37, 37899.91, 16234.76, 0.00, 0.00, -187500.02, -187500.02, -187500.02, -187500.02, 0.000, 0.000, 0.000, 21:25:22.043, 1541903122043
38, 38290.46, 16696.04, 0.00, 0.00, -187500.02, -187500.02, -187500.02, -187500.02, 0.000, 0.000, 0.000, 21:25:22.043, 1541903122043
39, 38442.94, 16872.46, 0.00, 0.00, -187500.02, -187500.02, -187500.02, -187500.02, 0.000, 0.000, 0.000, 21:25:22.043, 1541903122043
40, 38029.39, 16365.21, 0.00, 0.00, -187500.02, -187500.02, -187500.02, -187500.02, 0.000, 0.000, 0.000, 21:25:22.043, 1541903122043
41, 37870.38, 16187.20, 0.00, 0.00, -187500.02, -187500.02, -187500.02, -187500.02, 0.000, 0.000, 0.000, 21:25:22.043, 1541903122043
42, 38201.05, 16585.35, 0.00, 0.00, -187500.02, -187500.02, -187500.02, -187500.02, 0.000, 0.000, 0.000, 21:25:22.043, 1541903122043
43, 38475.51, 16907.48, 0.00, 0.00, -187500.02, -187500.02, -187500.02, -187500.02, 0.000, 0.000, 0.000, 21:25:22.043, 1541903122043
44, 38090.81, 16439.57, 0.00, 0.00, -187500.02, -187500.02, -187500.02, -187500.02, 0.000, 0.000, 0.000, 21:25:22.043, 1541903122043
45, 37866.74, 16185.14, 0.00, 0.00, -187500.02, -187500.02, -187500.02, -187500.02, 0.360, 0.710, 0.530, 21:25:22.043, 1541903122043
46, 38123.04, 16513.40, 0.00, 0.00, -187500.02, -187500.02, -187500.02, -187500.02, 0.000, 0.000, 0.000, 21:25:22.043, 1541903122043
47, 38500.23, 16953.48, 0.00, 0.00, -187500.02, -187500.02, -187500.02, -187500.02, 0.000, 0.000, 0.000, 21:25:22.043, 1541903122043
48, 38180.55, 16547.06, 0.00, 0.00, -187500.02, -187500.02, -187500.02, -187500.02, 0.000, 0.000, 0.000, 21:25:22.043, 1541903122043
49, 37866.16, 16187.09, 0.00, 0.00, -187500.02, -187500.02, -187500.02, -187500.02, 0.000, 0.000, 0.000, 21:25:22.043, 1541903122043
50, 38027.18, 16392.46, 0.00, 0.00, -187500.02, -187500.02, -187500.02, -187500.02, 0.000, 0.000, 0.000, 21:25:22.043, 1541903122043
51, 38452.82, 16901.40, 0.00, 0.00, -187500.02, -187500.02, -187500.02, -187500.02, 0.000, 0.000, 0.000, 21:25:22.043, 1541903122043
52, 38235.14, 16626.63, 0.00, 0.00, -187500.02, -187500.02, -187500.02, -187500.02, 0.000, 0.000, 0.000, 21:25:22.043, 1541903122043
53, 37866.22, 16193.03, 0.00, 0.00, -187500.02, -187500.02, -187500.02, -187500.02, 0.000, 0.000, 0.000, 21:25:22.043, 1541903122043
54, 37952.64, 16308.59, 0.00, 0.00, -187500.02, -187500.02, -187500.02, -187500.02, 0.000, 0.000, 0.000, 21:25:22.044, 1541903122044
55, 38411.34, 16858.89, 0.00, 0.00, -187500.02, -187500.02, -187500.02, -187500.02, 0.362, 0.704, 0.530, 21:25:22.044, 1541903122044
56, 38333.78, 16746.06, 0.00, 0.00, -187500.02, -187500.02, -187500.02, -187500.02, 0.000, 0.000, 0.000, 21:25:22.044, 1541903122044
57, 37934.13, 16250.77, 0.00, 0.00, -187500.02, -187500.02, -187500.02, -187500.02, 0.000, 0.000, 0.000, 21:25:22.044, 1541903122044
58, 37926.50, 16245.92, 0.00, 0.00, -187500.02, -187500.02, -187500.02, -187500.02, 0.000, 0.000, 0.000, 21:25:22.044, 1541903122044
59, 38338.45, 16761.91, 0.00, 0.00, -187500.02, -187500.02, -187500.02, -187500.02, 0.000, 0.000, 0.000, 21:25:22.044, 1541903122044
60, 38371.24, 16808.67, 0.00, 0.00, -187500.02, -187500.02, -187500.02, -187500.02, 0.000, 0.000, 0.000, 21:25:22.044, 1541903122044
0, 0.00, 0.00, 0.00, 0.00, 0.00, 0.00, 0.00, 0.00, 0.000, 0.000, 0.000, 21:25:22.044, 1541903122044
1, 38397.95, 16845.30, 0.00, 0.00, 0.00, -187500.02, -187500.02, -187500.02, 0.362, 0.704, 0.532, 21:25:22.056, 1541903122056
2, 38019.11, 16364.11, 0.00, 0.00, 0.00, -187500.02, -187500.02, -187500.02, 0.000, 0.000, 0.000, 21:25:22.341, 1541903122341
3, 37833.61, 16136.35, 0.00, 0.00, 0.00, -187500.02, -187500.02, -187500.02, 0.000, 0.000, 0.000, 21:25:22.341, 1541903122341
4, 38138.85, 16503.10, 0.00, 0.00, 0.00, -187500.02, -187500.02, -187500.02, 0.000, 0.000, 0.000, 21:25:22.342, 1541903122342
5, 38475.84, 16926.53, 0.00, 0.00, 0.00, -187500.02, -187500.02, -187500.02, 0.000, 0.000, 0.000, 21:25:22.342, 1541903122342
6, 38128.39, 16519.01, 0.00, 0.00, 0.00, -187500.02, -187500.02, -187500.02, 0.000, 0.000, 0.000, 21:25:22.342, 1541903122342
7, 37867.65, 16204.32, 0.00, 0.00, 0.00, -187500.02, -187500.02, -187500.02, 0.000, 0.000, 0.000, 21:25:22.342, 1541903122342
8, 38074.92, 16453.77, 0.00, 0.00, 0.00, -187500.02, -187500.02, -187500.02, 0.360, 0.704, 0.528, 21:25:22.342, 1541903122342
9, 38485.97, 16930.95, 0.00, 0.00, 0.00, -187500.02, -187500.02, -187500.02, 0.000, 0.000, 0.000, 21:25:22.342, 1541903122342
10, 38230.64, 16595.57, 0.00, 0.00, 0.00, -187500.02, -187500.02, -187500.02, 0.000, 0.000, 0.000, 21:25:22.342, 1541903122342
11, 37891.46, 16194.35, 0.00, 0.00, 0.00, -187500.02, -187500.02, -187500.02, 0.000, 0.000, 0.000, 21:25:22.342, 1541903122342
12, 38019.04, 16364.14, 0.00, 0.00, 0.00, -187500.02, -187500.02, -187500.02, 0.000, 0.000, 0.000, 21:25:22.342, 1541903122342
13, 38454.95, 16906.66, 0.00, 0.00, 0.00, -187500.02, -187500.02, -187500.02, 0.000, 0.000, 0.000, 21:25:22.342, 1541903122342
14, 38313.82, 16725.77, 0.00, 0.00, 0.00, -187500.02, -187500.02, -187500.02, 0.000, 0.000, 0.000, 21:25:22.342, 1541903122342
15, 37936.25, 16268.20, 0.00, 0.00, 0.00, -187500.02, -187500.02, -187500.02, 0.000, 0.000, 0.000, 21:25:22.342, 1541903122342
16, 37962.94, 16314.05, 0.00, 0.00, 0.00, -187500.02, -187500.02, -187500.02, 0.000, 0.000, 0.000, 21:25:22.342, 1541903122342
17, 38391.38, 16834.64, 0.00, 0.00, 0.00, -187500.02, -187500.02, -187500.02, 0.000, 0.000, 0.000, 21:25:22.342, 1541903122342
18, 38390.46, 16824.76, 0.00, 0.00, 0.00, -187500.02, -187500.02, -187500.02, 0.000, 0.000, 0.000, 21:25:22.342, 1541903122342
19, 37975.28, 16311.68, 0.00, 0.00, 0.00, -187500.02, -187500.02, -187500.02, 0.356, 0.706, 0.520, 21:25:22.342, 1541903122342
20, 37926.77, 16265.95, 0.00, 0.00, 0.00, -187500.02, -187500.02, -187500.02, 0.000, 0.000, 0.000, 21:25:22.343, 1541903122343
21, 38325.84, 16746.22, 0.00, 0.00, 0.00, -187500.02, -187500.02, -187500.02, 0.000, 0.000, 0.000, 21:25:22.343, 1541903122343
22, 38462.61, 16897.36, 0.00, 0.00, 0.00, -187500.02, -187500.02, -187500.02, 0.000, 0.000, 0.000, 21:25:22.343, 1541903122343
23, 38044.61, 16386.87, 0.00, 0.00, 0.00, -187500.02, -187500.02, -187500.02, 0.000, 0.000, 0.000, 21:25:22.343, 1541903122343
24, 37911.82, 16238.23, 0.00, 0.00, 0.00, -187500.02, -187500.02, -187500.02, 0.000, 0.000, 0.000, 21:25:22.343, 1541903122343
