%OpenBCI Raw EEG Data
%Number of channels = 8
%Sample Rate = 250.0 Hz
%First Column = SampleIndex
%Last Column = Timestamp 
%Other Columns = EEG data in microvolts followed by Accel Data (in G) interleaved with Aux Data
0, 0.00, 0.00, 0.00, 0.00, 0.00, 0.00, 0.00, 0.00, 0.000, 0.000, 0.000, 22:53:42.126, 1541908422126
1, -2296.26, 14567.08, 187500.00, 187500.00, -187500.02, -187500.02, -187500.02, -187500.02, 0.026, 0.792, 0.592, 22:53:42.142, 1541908422142
2, -2508.47, 14408.51, 187500.00, 187500.00, -187500.02, -187500.02, -187500.02, -187500.02, 0.000, 0.000, 0.000, 22:53:42.621, 1541908422621
3, -2586.34, 14170.16, 187500.00, 187500.00, -187500.02, -187500.02, -187500.02, -187500.02, 0.000, 0.000, 0.000, 22:53:42.622, 1541908422622
4, -2361.89, 14261.87, 187500.00, 187500.00, -187500.02, -187500.02, -187500.02, -187500.02, 0.000, 0.000, 0.000, 22:53:42.622, 1541908422622
5, -2283.43, 14561.22, 187500.00, 187500.00, -187500.02, -187500.02, -187500.02, -187500.02, 0.000, 0.000, 0.000, 22:53:42.622, 1541908422622
6, -2496.00, 14447.23, 187500.00, 187500.00, -187500.02, -187500.02, -187500.02, -187500.02, 0.000, 0.000, 0.000, 22:53:42.622, 1541908422622
7, -2594.64, 14209.61, 187500.00, 187500.00, -187500.02, -187500.02, -187500.02, -187500.02, 0.000, 0.000, 0.000, 22:53:42.622, 1541908422622
8, -2429.90, 14191.21, 187500.00, 187500.00, -187500.02, -187500.02, -187500.02, -187500.02, 0.026, 0.812, 0.570, 22:53:42.622, 1541908422622
9, -2278.31, 14518.51, 187500.00, 187500.00, -187500.02, -187500.02, -187500.02, -187500.02, 0.000, 0.000, 0.000, 22:53:42.622, 1541908422622
10, -2466.78, 14472.26, 187500.00, 187500.00, -187500.02, -187500.02, -187500.02, -187500.02, 0.000, 0.000, 0.000, 22:53:42.622, 1541908422622
11, -2576.89, 14276.59, 187500.00, 187500.00, -187500.02, -187500.02, -187500.02, -187500.02, 0.000, 0.000, 0.000, 22:53:42.622, 1541908422622
12, -2460.39, 14187.86, 187500.00, 187500.00, -187500.02, -187500.02, -187500.02, -187500.02, 0.000, 0.000, 0.000, 22:53:42.623, 1541908422623
13, -2256.27, 14516.29, 187500.00, 187500.00, -187500.02, -187500.02, -187500.02, -187500.02, 0.000, 0.000, 0.000, 22:53:42.623, 1541908422623
14, -2404.60, 14536.17, 187500.00, 187500.00, -187500.02, -187500.02, -187500.02, -187500.02, 0.000, 0.000, 0.000, 22:53:42.623, 1541908422623
15, -2569.74, 14308.45, 187500.00, 187500.00, -187500.02, -187500.02, -187500.02, -187500.02, 0.000, 0.000, 0.000, 22:53:42.623, 1541908422623
16, -2516.87, 14150.06, 187500.00, 187500.00, -187500.02, -187500.02, -187500.02, -187500.02, 0.000, 0.000, 0.000, 22:53:42.623, 1541908422623
17, -2261.64, 14450.49, 187500.00, 187500.00, -187500.02, -187500.02, -187500.02, -187500.02, 0.024, 0.824, 0.558, 22:53:42.623, 1541908422623
18, -2362.13, 14566.92, 187500.00, 187500.00, -187500.02, -187500.02, -187500.02, -187500.02, 0.000, 0.000, 0.000, 22:53:42.623, 1541908422623
19, -2515.00, 14404.09, 187500.00, 187500.00, -187500.02, -187500.02, -187500.02, -187500.02, 0.000, 0.000, 0.000, 22:53:42.624, 1541908422624
20, -2528.63, 14185.22, 187500.00, 187500.00, -187500.02, -187500.02, -187500.02, -187500.02, 0.000, 0.000, 0.000, 22:53:42.624, 1541908422624
21, -2301.18, 14379.61, 187500.00, 187500.00, -187500.02, -187500.02, -187500.02, -187500.02, 0.000, 0.000, 0.000, 22:53:42.625, 1541908422625
22, -2363.74, 14545.87, 187500.00, 187500.00, -187500.02, -187500.02, -187500.02, -187500.02, 0.000, 0.000, 0.000, 22:53:42.625, 1541908422625
23, -2581.98, 14348.39, 187500.00, 187500.00, -187500.02, -187500.02, -187500.02, -187500.02, 0.000, 0.000, 0.000, 22:53:42.625, 1541908422625
24, -2647.65, 14098.38, 187500.00, 187500.00, -187500.02, -187500.02, -187500.02, -187500.02, 0.000, 0.000, 0.000, 22:53:42.625, 1541908422625
25, -2412.96, 14240.79, 187500.00, 187500.00, -187500.02, -187500.02, -187500.02, -187500.02, 0.000, 0.000, 0.000, 22:53:42.625, 1541908422625
26, -2372.59, 14503.00, 187500.00, 187500.00, -187500.02, -187500.02, -187500.02, -187500.02, 0.000, 0.000, 0.000, 22:53:42.626, 1541908422626
27, -2616.52, 14334.64, 187500.00, 187500.00, -187500.02, -187500.02, -187500.02, -187500.02, 0.030, 0.808, 0.550, 22:53:42.626, 1541908422626
28, -2725.59, 14072.26, 187500.00, 187500.00, -187500.02, -187500.02, -187500.02, -187500.02, 0.000, 0.000, 0.000, 22:53:42.626, 1541908422626
29, -2522.91, 14113.67, 187500.00, 187500.00, -187500.02, -187500.02, -187500.02, -187500.02, 0.000, 0.000, 0.000, 22:53:42.626, 1541908422626
30, -2413.34, 14437.33, 187500.00, 187500.00, -187500.02, -187500.02, -187500.02, -187500.02, 0.000, 0.000, 0.000, 22:53:42.626, 1541908422626
31, -2643.70, 14329.88, 187500.00, 187500.00, -187500.02, -187500.02, -187500.02, -187500.02, 0.000, 0.000, 0.000, 22:53:42.626, 1541908422626
32, -2774.61, 14082.38, 187500.00, 187500.00, -187500.02, -187500.02, -187500.02, -187500.02, 0.000, 0.000, 0.000, 22:53:42.626, 1541908422626
33, -2599.84, 14043.22, 187500.00, 187500.00, -187500.02, -187500.02, -187500.02, -187500.02, 0.000, 0.000, 0.000, 22:53:42.626, 1541908422626
34, -2390.41, 14413.99, 187500.00, 187500.00, -187500.02, -187500.02, -187500.02, -187500.02, 0.000, 0.000, 0.000, 22:53:42.626, 1541908422626
35, -2547.41, 14417.21, 187500.00, 187500.00, -187500.02, -187500.02, -187500.02, -187500.02, 0.000, 0.000, 0.000, 22:53:42.627, 1541908422627
36, -2692.65, 14185.04, 187500.00, 187500.00, -187500.02, -187500.02, -187500.02, -187500.02, 0.000, 0.000, 0.000, 22:53:42.627, 1541908422627
37, -2602.61, 14057.91, 187500.00, 187500.00, -187500.02, -187500.02, -187500.02, -187500.02, 0.048, 0.826, 0.546, 22:53:42.627, 1541908422627
38, -2374.87, 14402.17, 187500.00, 187500.00, -187500.02, -187500.02, -187500.02, -187500.02, 0.000, 0.000, 0.000, 22:53:42.627, 1541908422627
39, -2506.86, 14472.04, 187500.00, 187500.00, -187500.02, -187500.02, -187500.02, -187500.02, 0.000, 0.000, 0.000, 22:53:42.627, 1541908422627
40, -2674.83, 14252.81, 187500.00, 187500.00, -187500.02, -187500.02, -187500.02, -187500.02, 0.000, 0.000, 0.000, 22:53:42.627, 1541908422627
41, -2638.38, 14065.26, 187500.00, 187500.00, -187500.02, -187500.02, -187500.02, -187500.02, 0.000, 0.000, 0.000, 22:53:42.627, 1541908422627
42, -2397.54, 14346.18, 187500.00, 187500.00, -187500.02, -187500.02, -187500.02, -187500.02, 0.000, 0.000, 0.000, 22:53:42.631, 1541908422631
43, -2491.08, 14465.49, 187500.00, 187500.00, -187500.02, -187500.02, -187500.02, -187500.02, 0.000, 0.000, 0.000, 22:53:42.631, 1541908422631
44, -2659.37, 14279.39, 187500.00, 187500.00, -187500.02, -187500.02, -187500.02, -187500.02, 0.000, 0.000, 0.000, 22:53:42.631, 1541908422631
45, -2658.76, 14085.91, 187500.00, 187500.00, -187500.02, -187500.02, -187500.02, -187500.02, 0.000, 0.000, 0.000, 22:53:42.631, 1541908422631
46, -2404.22, 14303.57, 187500.00, 187500.00, -187500.02, -187500.02, -187500.02, -187500.02, 0.000, 0.000, 0.000, 22:53:42.631, 1541908422631
47, -2424.76, 14505.19, 187500.00, 187500.00, -187500.02, -187500.02, -187500.02, -187500.02, 0.068, 0.848, 0.534, 22:53:42.631, 1541908422631
48, -2622.62, 14335.02, 187500.00, 187500.00, -187500.02, -187500.02, -187500.02, -187500.02, 0.000, 0.000, 0.000, 22:53:42.631, 1541908422631
49, -2679.53, 14099.39, 187500.00, 187500.00, -187500.02, -187500.02, -187500.02, -187500.02, 0.000, 0.000, 0.000, 22:53:42.631, 1541908422631
50, -2436.81, 14233.23, 187500.00, 187500.00, -187500.02, -187500.02, -187500.02, -187500.02, 0.000, 0.000, 0.000, 22:53:42.632, 1541908422632
51, -2379.59, 14523.13, 187500.00, 187500.00, -187500.02, -187500.02, -187500.02, -187500.02, 0.000, 0.000, 0.000, 22:53:42.632, 1541908422632
52, -2576.37, 14400.04, 187500.00, 187500.00, -187500.02, -187500.02, -187500.02, -187500.02, 0.000, 0.000, 0.000, 22:53:42.632, 1541908422632
53, -2672.73, 14144.50, 187500.00, 187500.00, -187500.02, -187500.02, -187500.02, -187500.02, 0.000, 0.000, 0.000, 22:53:42.632, 1541908422632
54, -2482.21, 14176.08, 187500.00, 187500.00, -187500.02, -187500.02, -187500.02, -187500.02, 0.000, 0.000, 0.000, 22:53:42.632, 1541908422632
55, -2345.97, 14511.71, 187500.00, 187500.00, -187500.02, -187500.02, -187500.02, -187500.02, 0.000, 0.000, 0.000, 22:53:42.632, 1541908422632
56, -2558.94, 14417.17, 187500.00, 187500.00, -187500.02, -187500.02, -187500.02, -187500.02, 0.076, 0.846, 0.524, 22:53:42.632, 1541908422632
57, -2676.84, 14186.00, 187500.00, 187500.00, -187500.02, -187500.02, -187500.02, -187500.02, 0.000, 0.000, 0.000, 22:53:42.632, 1541908422632
58, -2536.30, 14128.56, 187500.00, 187500.00, -187500.02, -187500.02, -187500.02, -187500.02, 0.000, 0.000, 0.000, 22:53:42.632, 1541908422632
59, -2325.16, 14496.54, 187500.00, 187500.00, -187500.02, -187500.02, -187500.02, -187500.02, 0.000, 0.000, 0.000, 22:53:42.632, 1541908422632
60, -2502.52, 14478.48, 187500.00, 187500.00, -187500.02, -187500.02, -187500.02, -187500.02, 0.000, 0.000, 0.000, 22:53:42.632, 1541908422632
61, -2660.04, 14233.01, 187500.00, 187500.00, -187500.02, -187500.02, -187500.02, -187500.02, 0.000, 0.000, 0.000, 22:53:42.633, 1541908422633
62, -2566.38, 14099.32, 187500.00, 187500.00, -187500.02, -187500.02, -187500.02, -187500.02, 0.000, 0.000, 0.000, 22:53:42.633, 1541908422633
63, -2322.37, 14449.93, 187500.00, 187500.00, -187500.02, -187500.02, -187500.02, -187500.02, 0.000, 0.000, 0.000, 22:53:42.633, 1541908422633
64, -2468.15, 14502.95, 187500.00, 187500.00, -187500.02, -187500.02, -187500.02, -187500.02, 0.000, 0.000, 0.000, 22:53:42.633, 1541908422633
65, -2653.51, 14271.41, 187500.00, 187500.00, -187500.02, -187500.02, -187500.02, -187500.02, 0.000, 0.000, 0.000, 22:53:42.633, 1541908422633
66, -2614.89, 14089.44, 187500.00, 187500.00, -187500.02, -187500.02, -187500.02, -187500.02, 0.076, 0.852, 0.520, 22:53:42.633, 1541908422633
67, -2358.80, 14371.81, 187500.00, 187500.00, -187500.02, -187500.02, -187500.02, -187500.02, 0.000, 0.000, 0.000, 22:53:42.633, 1541908422633
68, -2422.48, 14528.72, 187500.00, 187500.00, -187500.02, -187500.02, -187500.02, -187500.02, 0.000, 0.000, 0.000, 22:53:42.633, 1541908422633
69, -2609.54, 14338.20, 187500.00, 187500.00, -187500.02, -187500.02, -187500.02, -187500.02, 0.000, 0.000, 0.000, 22:53:42.634, 1541908422634
70, -2636.43, 14111.48, 187500.00, 187500.00, -187500.02, -187500.02, -187500.02, -187500.02, 0.000, 0.000, 0.000, 22:53:42.634, 1541908422634
71, -2379.16, 14314.01, 187500.00, 187500.00, -187500.02, -187500.02, -187500.02, -187500.02, 0.000, 0.000, 0.000, 22:53:42.634, 1541908422634
72, -2390.50, 14532.90, 187500.00, 187500.00, -187500.02, -187500.02, -187500.02, -187500.02, 0.000, 0.000, 0.000, 22:53:42.634, 1541908422634
73, -2589.23, 14369.18, 187500.00, 187500.00, -187500.02, -187500.02, -187500.02, -187500.02, 0.000, 0.000, 0.000, 22:53:42.634, 1541908422634
74, -2661.42, 14127.96, 187500.00, 187500.00, -187500.02, -187500.02, -187500.02, -187500.02, 0.000, 0.000, 0.000, 22:53:42.634, 1541908422634
75, -2449.08, 14213.59, 187500.00, 187500.00, -187500.02, -187500.02, -187500.02, -187500.02, 0.000, 0.000, 0.000, 22:53:42.634, 1541908422634
76, -2372.50, 14524.63, 187500.00, 187500.00, -187500.02, -187500.02, -187500.02, -187500.02, 0.070, 0.838, 0.522, 22:53:42.634, 1541908422634
77, -2543.16, 14435.83, 187500.00, 187500.00, -187500.02, -187500.02, -187500.02, -187500.02, 0.000, 0.000, 0.000, 22:53:42.634, 1541908422634
78, -2643.25, 14180.28, 187500.00, 187500.00, -187500.02, -187500.02, -187500.02, -187500.02, 0.000, 0.000, 0.000, 22:53:42.634, 1541908422634
79, -2479.75, 14167.74, 187500.00, 187500.00, -187500.02, -187500.02, -187500.02, -187500.02, 0.000, 0.000, 0.000, 22:53:42.634, 1541908422634
80, -2328.25, 14522.55, 187500.00, 187500.00, -187500.02, -187500.02, -187500.02, -187500.02, 0.000, 0.000, 0.000, 22:53:42.635, 1541908422635
81, -2489.67, 14477.69, 187500.00, 187500.00, -187500.02, -187500.02, -187500.02, -187500.02, 0.000, 0.000, 0.000, 22:53:42.635, 1541908422635
82, -2624.65, 14230.19, 187500.00, 187500.00, -187500.02, -187500.02, -187500.02, -187500.02, 0.000, 0.000, 0.000, 22:53:42.635, 1541908422635
83, -2538.82, 14116.13, 187500.00, 187500.00, -187500.02, -187500.02, -187500.02, -187500.02, 0.000, 0.000, 0.000, 22:53:42.635, 1541908422635
84, -2327.06, 14485.45, 187500.00, 187500.00, -187500.02, -187500.02, -187500.02, -187500.02, 0.000, 0.000, 0.000, 22:53:42.635, 1541908422635
85, -2480.95, 14499.13, 187500.00, 187500.00, -187500.02, -187500.02, -187500.02, -187500.02, 0.000, 0.000, 0.000, 22:53:42.635, 1541908422635
86, -2658.25, 14248.23, 187500.00, 187500.00, -187500.02, -187500.02, -187500.02, -187500.02, 0.072, 0.838, 0.526, 22:53:42.635, 1541908422635
87, -2587.86, 14104.02, 187500.00, 187500.00, -187500.02, -187500.02, -187500.02, -187500.02, 0.000, 0.000, 0.000, 22:53:42.635, 1541908422635
88, -2330.44, 14445.64, 187500.00, 187500.00, -187500.02, -187500.02, -187500.02, -187500.02, 0.000, 0.000, 0.000, 22:53:42.635, 1541908422635
89, -2432.12, 14532.75, 187500.00, 187500.00, -187500.02, -187500.02, -187500.02, -187500.02, 0.000, 0.000, 0.000, 22:53:42.635, 1541908422635
90, -2609.77, 14317.34, 187500.00, 187500.00, -187500.02, -187500.02, -187500.02, -187500.02, 0.000, 0.000, 0.000, 22:53:42.635, 1541908422635
91, -2593.18, 14118.25, 187500.00, 187500.00, -187500.02, -187500.02, -187500.02, -187500.02, 0.000, 0.000, 0.000, 22:53:42.636, 1541908422636
92, -2318.05, 14401.09, 187500.00, 187500.00, -187500.02, -187500.02, -187500.02, -187500.02, 0.000, 0.000, 0.000, 22:53:42.636, 1541908422636
93, -2399.46, 14549.38, 187500.00, 187500.00, -187500.02, -187500.02, -187500.02, -187500.02, 0.000, 0.000, 0.000, 22:53:42.636, 1541908422636
94, -2585.31, 14360.46, 187500.00, 187500.00, -187500.02, -187500.02, -187500.02, -187500.02, 0.000, 0.000, 0.000, 22:53:42.636, 1541908422636
95, -2615.62, 14133.43, 187500.00, 187500.00, -187500.02, -187500.02, -187500.02, -187500.02, 0.000, 0.000, 0.000, 22:53:42.636, 1541908422636
96, -2367.41, 14315.75, 187500.00, 187500.00, -187500.02, -187500.02, -187500.02, -187500.02, 0.074, 0.842, 0.534, 22:53:42.636, 1541908422636
97, -2350.96, 14569.98, 187500.00, 187500.00, -187500.02, -187500.02, -187500.02, -187500.02, 0.000, 0.000, 0.000, 22:53:42.636, 1541908422636
98, -2550.13, 14420.07, 187500.00, 187500.00, -187500.02, -187500.02, -187500.02, -187500.02, 0.000, 0.000, 0.000, 22:53:42.636, 1541908422636
99, -2619.96, 14165.08, 187500.00, 187500.00, -187500.02, -187500.02, -187500.02, -187500.02, 0.000, 0.000, 0.000, 22:53:42.636, 1541908422636
100, -2400.38, 14255.45, 187500.00, 187500.00, -187500.02, -187500.02, -187500.02, -187500.02, 0.000, 0.000, 0.000, 22:53:42.636, 1541908422636
101, -2316.65, 14572.33, 187500.00, 187500.00, -187500.02, -187500.02, -187500.02, -187500.02, 0.000, 0.000, 0.000, 22:53:42.636, 1541908422636
102, -2538.80, 14442.45, 187500.00, 187500.00, -187500.02, -187500.02, -187500.02, -187500.02, 0.000, 0.000, 0.000, 22:53:42.636, 1541908422636
103, -2634.09, 14197.45, 187500.00, 187500.00, -187500.02, -187500.02, -187500.02, -187500.02, 0.000, 0.000, 0.000, 22:53:42.637, 1541908422637
104, -2429.75, 14213.63, 187500.00, 187500.00, -187500.02, -187500.02, -187500.02, -187500.02, 0.000, 0.000, 0.000, 22:53:42.637, 1541908422637
105, -2277.84, 14557.33, 187500.00, 187500.00, -187500.02, -187500.02, -187500.02, -187500.02, 0.068, 0.842, 0.536, 22:53:42.637, 1541908422637
106, -2479.70, 14489.25, 187500.00, 187500.00, -187500.02, -187500.02, -187500.02, -187500.02, 0.000, 0.000, 0.000, 22:53:42.637, 1541908422637
107, -2617.66, 14245.79, 187500.00, 187500.00, -187500.02, -187500.02, -187500.02, -187500.02, 0.000, 0.000, 0.000, 22:53:42.637, 1541908422637
108, -2492.49, 14160.46, 187500.00, 187500.00, -187500.02, -187500.02, -187500.02, -187500.02, 0.000, 0.000, 0.000, 22:53:42.637, 1541908422637
109, -2296.11, 14497.05, 187500.00, 187500.00, -187500.02, -187500.02, -187500.02, -187500.02, 0.000, 0.000, 0.000, 22:53:42.637, 1541908422637
110, -2459.27, 14504.78, 187500.00, 187500.00, -187500.02, -187500.02, -187500.02, -187500.02, 0.000, 0.000, 0.000, 22:53:42.637, 1541908422637
111, -2602.50, 14295.30, 187500.00, 187500.00, -187500.02, -187500.02, -187500.02, -187500.02, 0.000, 0.000, 0.000, 22:53:42.637, 1541908422637
112, -2533.75, 14141.84, 187500.00, 187500.00, -187500.02, -187500.02, -187500.02, -187500.02, 0.000, 0.000, 0.000, 22:53:42.637, 1541908422637
113, -2284.82, 14461.31, 187500.00, 187500.00, -187500.02, -187500.02, -187500.02, -187500.02, 0.000, 0.000, 0.000, 22:53:42.637, 1541908422637
114, -2404.42, 14550.45, 187500.00, 187500.00, -187500.02, -187500.02, -187500.02, -187500.02, 0.000, 0.000, 0.000, 22:53:42.666, 1541908422666
115, -2596.83, 14324.12, 187500.00, 187500.00, -187500.02, -187500.02, -187500.02, -187500.02, 0.060, 0.842, 0.540, 22:53:42.666, 1541908422666
116, -2583.77, 14116.31, 187500.00, 187500.00, -187500.02, -187500.02, -187500.02, -187500.02, 0.000, 0.000, 0.000, 22:53:42.666, 1541908422666
117, -2312.82, 14386.25, 187500.00, 187500.00, -187500.02, -187500.02, -187500.02, -187500.02, 0.000, 0.000, 0.000, 22:53:42.666, 1541908422666
118, -2355.52, 14567.75, 187500.00, 187500.00, -187500.02, -187500.02, -187500.02, -187500.02, 0.000, 0.000, 0.000, 22:53:42.666, 1541908422666
119, -2551.00, 14354.09, 187500.00, 187500.00, -187500.02, -187500.02, -187500.02, -187500.02, 0.000, 0.000, 0.000, 22:53:42.667, 1541908422667
120, -2595.24, 14093.87, 187500.00, 187500.00, -187500.02, -187500.02, -187500.02, -187500.02, 0.000, 0.000, 0.000, 22:53:42.667, 1541908422667
121, -2331.00, 14275.37, 187500.00, 187500.00, -187500.02, -187500.02, -187500.02, -187500.02, 0.000, 0.000, 0.000, 22:53:42.668, 1541908422668
122, -2312.91, 14536.59, 187500.00, 187500.00, -187500.02, -187500.02, -187500.02, -187500.02, 0.000, 0.000, 0.000, 22:53:43.101, 1541908423101
123, -2540.34, 14373.24, 187500.00, 187500.00, -187500.02, -187500.02, -187500.02, -187500.02, 0.000, 0.000, 0.000, 22:53:43.102, 1541908423102
124, -2616.52, 14120.89, 187500.00, 187500.00, -187500.02, -187500.02, -187500.02, -187500.02, 0.000, 0.000, 0.000, 22:53:43.102, 1541908423102
125, -2404.51, 14191.52, 187500.00, 187500.00, -187500.02, -187500.02, -187500.02, -187500.02, 0.056, 0.842, 0.542, 22:53:43.102, 1541908423102
126, -2305.83, 14515.58, 187500.00, 187500.00, -187500.02, -187500.02, -187500.02, -187500.02, 0.000, 0.000, 0.000, 22:53:43.102, 1541908423102
127, -2498.17, 14433.57, 187500.00, 187500.00, -187500.02, -187500.02, -187500.02, -187500.02, 0.000, 0.000, 0.000, 22:53:43.102, 1541908423102
128, -2594.68, 14204.56, 187500.00, 187500.00, -187500.02, -187500.02, -187500.02, -187500.02, 0.000, 0.000, 0.000, 22:53:43.103, 1541908423103
129, -2428.61, 14184.30, 187500.00, 187500.00, -187500.02, -187500.02, -187500.02, -187500.02, 0.000, 0.000, 0.000, 22:53:43.103, 1541908423103
130, -2270.04, 14528.52, 187500.00, 187500.00, -187500.02, -187500.02, -187500.02, -187500.02, 0.000, 0.000, 0.000, 22:53:43.103, 1541908423103
131, -2468.57, 14466.99, 187500.00, 187500.00, -187500.02, -187500.02, -187500.02, -187500.02, 0.000, 0.000, 0.000, 22:53:43.103, 1541908423103
132, -2614.60, 14217.05, 187500.00, 187500.00, -187500.02, -187500.02, -187500.02, -187500.02, 0.000, 0.000, 0.000, 22:53:43.103, 1541908423103
133, -2504.60, 14125.07, 187500.00, 187500.00, -187500.02, -187500.02, -187500.02, -187500.02, 0.000, 0.000, 0.000, 22:53:43.104, 1541908423104
134, -2271.56, 14487.55, 187500.00, 187500.00, -187500.02, -187500.02, -187500.02, -187500.02, 0.000, 0.000, 0.000, 22:53:43.104, 1541908423104
135, -2417.68, 14518.44, 187500.00, 187500.00, -187500.02, -187500.02, -187500.02, -187500.02, 0.060, 0.832, 0.542, 22:53:43.104, 1541908423104
136, -2594.52, 14282.25, 187500.00, 187500.00, -187500.02, -187500.02, -187500.02, -187500.02, 0.000, 0.000, 0.000, 22:53:43.104, 1541908423104
137, -2554.02, 14105.47, 187500.00, 187500.00, -187500.02, -187500.02, -187500.02, -187500.02, 0.000, 0.000, 0.000, 22:53:43.104, 1541908423104
138, -2290.81, 14429.64, 187500.00, 187500.00, -187500.02, -187500.02, -187500.02, -187500.02, 0.000, 0.000, 0.000, 22:53:43.104, 1541908423104
139, -2390.05, 14538.67, 187500.00, 187500.00, -187500.02, -187500.02, -187500.02, -187500.02, 0.000, 0.000, 0.000, 22:53:43.105, 1541908423105
140, -2580.06, 14325.72, 187500.00, 187500.00, -187500.02, -187500.02, -187500.02, -187500.02, 0.000, 0.000, 0.000, 22:53:43.107, 1541908423107
141, -2570.63, 14130.59, 187500.00, 187500.00, -187500.02, -187500.02, -187500.02, -187500.02, 0.000, 0.000, 0.000, 22:53:43.107, 1541908423107
142, -2285.51, 14388.22, 187500.00, 187500.00, -187500.02, -187500.02, -187500.02, -187500.02, 0.000, 0.000, 0.000, 22:53:43.108, 1541908423108
143, -2338.91, 14566.77, 187500.00, 187500.00, -187500.02, -187500.02, -187500.02, -187500.02, 0.000, 0.000, 0.000, 22:53:43.109, 1541908423109
144, -2553.17, 14376.84, 187500.00, 187500.00, -187500.02, -187500.02, -187500.02, -187500.02, 0.086, 0.820, 0.538, 22:53:43.109, 1541908423109
145, -2612.85, 14127.11, 187500.00, 187500.00, -187500.02, -187500.02, -187500.02, -187500.02, 0.000, 0.000, 0.000, 22:53:43.110, 1541908423110
146, -2356.86, 14291.57, 187500.00, 187500.00, -187500.02, -187500.02, -187500.02, -187500.02, 0.000, 0.000, 0.000, 22:53:43.110, 1541908423110
147, -2315.95, 14566.36, 187500.00, 187500.00, -187500.02, -187500.02, -187500.02, -187500.02, 0.000, 0.000, 0.000, 22:53:43.110, 1541908423110
148, -2525.14, 14421.55, 187500.00, 187500.00, -187500.02, -187500.02, -187500.02, -187500.02, 0.000, 0.000, 0.000, 22:53:43.110, 1541908423110
149, -2602.12, 14174.20, 187500.00, 187500.00, -187500.02, -187500.02, -187500.02, -187500.02, 0.000, 0.000, 0.000, 22:53:43.110, 1541908423110
150, -2382.72, 14233.88, 187500.00, 187500.00, -187500.02, -187500.02, -187500.02, -187500.02, 0.000, 0.000, 0.000, 22:53:43.110, 1541908423110
151, -2288.64, 14542.56, 187500.00, 187500.00, -187500.02, -187500.02, -187500.02, -187500.02, 0.000, 0.000, 0.000, 22:53:43.110, 1541908423110
152, -2505.47, 14425.88, 187500.00, 187500.00, -187500.02, -187500.02, -187500.02, -187500.02, 0.000, 0.000, 0.000, 22:53:43.114, 1541908423114
153, -2604.81, 14197.63, 187500.00, 187500.00, -187500.02, -187500.02, -187500.02, -187500.02, 0.000, 0.000, 0.000, 22:53:43.114, 1541908423114
154, -2436.59, 14181.94, 187500.00, 187500.00, -187500.02, -187500.02, -187500.02, -187500.02, 0.104, 0.816, 0.548, 22:53:43.115, 1541908423115
155, -2255.63, 14531.90, 187500.00, 187500.00, -187500.02, -187500.02, -187500.02, -187500.02, 0.000, 0.000, 0.000, 22:53:43.115, 1541908423115
156, -2438.02, 14494.86, 187500.00, 187500.00, -187500.02, -187500.02, -187500.02, -187500.02, 0.000, 0.000, 0.000, 22:53:43.115, 1541908423115
157, -2596.07, 14244.01, 187500.00, 187500.00, -187500.02, -187500.02, -187500.02, -187500.02, 0.000, 0.000, 0.000, 22:53:43.115, 1541908423115
158, -2502.19, 14123.35, 187500.00, 187500.00, -187500.02, -187500.02, -187500.02, -187500.02, 0.000, 0.000, 0.000, 22:53:43.115, 1541908423115
159, -2283.14, 14462.07, 187500.00, 187500.00, -187500.02, -187500.02, -187500.02, -187500.02, 0.000, 0.000, 0.000, 22:53:43.115, 1541908423115
160, -2433.46, 14501.54, 187500.00, 187500.00, -187500.02, -187500.02, -187500.02, -187500.02, 0.000, 0.000, 0.000, 22:53:43.115, 1541908423115
161, -2585.20, 14283.52, 187500.00, 187500.00, -187500.02, -187500.02, -187500.02, -187500.02, 0.000, 0.000, 0.000, 22:53:43.116, 1541908423116
162, -2526.57, 14118.88, 187500.00, 187500.00, -187500.02, -187500.02, -187500.02, -187500.02, 0.000, 0.000, 0.000, 22:53:43.116, 1541908423116
163, -2269.22, 14424.83, 187500.00, 187500.00, -187500.02, -187500.02, -187500.02, -187500.02, 0.000, 0.000, 0.000, 22:53:43.116, 1541908423116
164, -2371.32, 14538.98, 187500.00, 187500.00, -187500.02, -187500.02, -187500.02, -187500.02, 0.116, 0.812, 0.550, 22:53:43.116, 1541908423116
165, -2566.20, 14331.00, 187500.00, 187500.00, -187500.02, -187500.02, -187500.02, -187500.02, 0.000, 0.000, 0.000, 22:53:43.116, 1541908423116
166, -2586.90, 14101.69, 187500.00, 187500.00, -187500.02, -187500.02, -187500.02, -187500.02, 0.000, 0.000, 0.000, 22:53:43.116, 1541908423116
167, -2335.11, 14322.51, 187500.00, 187500.00, -187500.02, -187500.02, -187500.02, -187500.02, 0.000, 0.000, 0.000, 22:53:43.116, 1541908423116
168, -2340.76, 14549.44, 187500.00, 187500.00, -187500.02, -187500.02, -187500.02, -187500.02, 0.000, 0.000, 0.000, 22:53:43.116, 1541908423116
169, -2524.52, 14389.76, 187500.00, 187500.00, -187500.02, -187500.02, -187500.02, -187500.02, 0.000, 0.000, 0.000, 22:53:43.116, 1541908423116
170, -2587.39, 14138.51, 187500.00, 187500.00, -187500.02, -187500.02, -187500.02, -187500.02, 0.000, 0.000, 0.000, 22:53:43.117, 1541908423117
171, -2358.35, 14262.11, 187500.00, 187500.00, -187500.02, -187500.02, -187500.02, -187500.02, 0.000, 0.000, 0.000, 22:53:43.117, 1541908423117
172, -2303.37, 14550.52, 187500.00, 187500.00, -187500.02, -187500.02, -187500.02, -187500.02, 0.000, 0.000, 0.000, 22:53:43.117, 1541908423117
173, -2515.85, 14413.59, 187500.00, 187500.00, -187500.02, -187500.02, -187500.02, -187500.02, 0.000, 0.000, 0.000, 22:53:43.117, 1541908423117
174, -2614.26, 14160.99, 187500.00, 187500.00, -187500.02, -187500.02, -187500.02, -187500.02, 0.126, 0.816, 0.554, 22:53:43.117, 1541908423117
175, -2428.43, 14187.19, 187500.00, 187500.00, -187500.02, -187500.02, -187500.02, -187500.02, 0.000, 0.000, 0.000, 22:53:43.117, 1541908423117
176, -2284.04, 14535.92, 187500.00, 187500.00, -187500.02, -187500.02, -187500.02, -187500.02, 0.000, 0.000, 0.000, 22:53:43.117, 1541908423117
177, -2481.20, 14455.50, 187500.00, 187500.00, -187500.02, -187500.02, -187500.02, -187500.02, 0.000, 0.000, 0.000, 22:53:43.117, 1541908423117
178, -2614.19, 14200.64, 187500.00, 187500.00, -187500.02, -187500.02, -187500.02, -187500.02, 0.000, 0.000, 0.000, 22:53:43.117, 1541908423117
179, -2477.44, 14136.23, 187500.00, 187500.00, -187500.02, -187500.02, -187500.02, -187500.02, 0.000, 0.000, 0.000, 22:53:43.117, 1541908423117
180, -2268.61, 14509.54, 187500.00, 187500.00, -187500.02, -187500.02, -187500.02, -187500.02, 0.000, 0.000, 0.000, 22:53:43.118, 1541908423118
181, -2448.07, 14495.49, 187500.00, 187500.00, -187500.02, -187500.02, -187500.02, -187500.02, 0.000, 0.000, 0.000, 22:53:43.118, 1541908423118
182, -2605.45, 14251.90, 187500.00, 187500.00, -187500.02, -187500.02, -187500.02, -187500.02, 0.000, 0.000, 0.000, 22:53:43.118, 1541908423118
183, -2499.24, 14124.65, 187500.00, 187500.00, -187500.02, -187500.02, -187500.02, -187500.02, 0.000, 0.000, 0.000, 22:53:43.118, 1541908423118
184, -2246.42, 14476.73, 187500.00, 187500.00, -187500.02, -187500.02, -187500.02, -187500.02, 0.126, 0.820, 0.554, 22:53:43.118, 1541908423118
185, -2394.99, 14529.21, 187500.00, 187500.00, -187500.02, -187500.02, -187500.02, -187500.02, 0.000, 0.000, 0.000, 22:53:43.118, 1541908423118
186, -2570.65, 14303.48, 187500.00, 187500.00, -187500.02, -187500.02, -187500.02, -187500.02, 0.000, 0.000, 0.000, 22:53:43.118, 1541908423118
187, -2521.84, 14129.30, 187500.00, 187500.00, -187500.02, -187500.02, -187500.02, -187500.02, 0.000, 0.000, 0.000, 22:53:43.118, 1541908423118
188, -2254.33, 14423.98, 187500.00, 187500.00, -187500.02, -187500.02, -187500.02, -187500.02, 0.000, 0.000, 0.000, 22:53:43.118, 1541908423118
189, -2347.54, 14557.51, 187500.00, 187500.00, -187500.02, -187500.02, -187500.02, -187500.02, 0.000, 0.000, 0.000, 22:53:43.119, 1541908423119
190, -2542.15, 14356.88, 187500.00, 187500.00, -187500.02, -187500.02, -187500.02, -187500.02, 0.000, 0.000, 0.000, 22:53:43.119, 1541908423119
191, -2526.08, 14161.57, 187500.00, 187500.00, -187500.02, -187500.02, -187500.02, -187500.02, 0.000, 0.000, 0.000, 22:53:43.119, 1541908423119
192, -2254.60, 14385.05, 187500.00, 187500.00, -187500.02, -187500.02, -187500.02, -187500.02, 0.000, 0.000, 0.000, 22:53:43.119, 1541908423119
193, -2294.88, 14585.50, 187500.00, 187500.00, -187500.02, -187500.02, -187500.02, -187500.02, 0.114, 0.816, 0.552, 22:53:43.119, 1541908423119
194, -2511.78, 14408.22, 187500.00, 187500.00, -187500.02, -187500.02, -187500.02, -187500.02, 0.000, 0.000, 0.000, 22:53:43.119, 1541908423119
195, -2583.28, 14155.76, 187500.00, 187500.00, -187500.02, -187500.02, -187500.02, -187500.02, 0.000, 0.000, 0.000, 22:53:43.119, 1541908423119
196, -2361.60, 14266.58, 187500.00, 187500.00, -187500.02, -187500.02, -187500.02, -187500.02, 0.000, 0.000, 0.000, 22:53:43.119, 1541908423119
197, -2329.43, 14529.42, 187500.00, 187500.00, -187500.02, -187500.02, -187500.02, -187500.02, 0.000, 0.000, 0.000, 22:53:43.119, 1541908423119
198, -2528.81, 14413.68, 187500.00, 187500.00, -187500.02, -187500.02, -187500.02, -187500.02, 0.000, 0.000, 0.000, 22:53:43.119, 1541908423119
199, -2619.27, 14167.54, 187500.00, 187500.00, -187500.02, -187500.02, -187500.02, -187500.02, 0.000, 0.000, 0.000, 22:53:43.120, 1541908423120
200, -2415.46, 14191.26, 187500.00, 187500.00, -187500.02, -187500.02, -187500.02, -187500.02, 0.000, 0.000, 0.000, 22:53:43.120, 1541908423120
201, -2293.65, 14521.79, 187500.00, 187500.00, -187500.02, -187500.02, -187500.02, -187500.02, 0.000, 0.000, 0.000, 22:53:43.120, 1541908423120
202, -2506.95, 14430.53, 187500.00, 187500.00, -187500.02, -187500.02, -187500.02, -187500.02, 0.000, 0.000, 0.000, 22:53:43.120, 1541908423120
203, -2647.74, 14180.91, 187500.00, 187500.00, -187500.02, -187500.02, -187500.02, -187500.02, 0.104, 0.814, 0.548, 22:53:43.120, 1541908423120
204, -2487.32, 14133.59, 187500.00, 187500.00, -187500.02, -187500.02, -187500.02, -187500.02, 0.000, 0.000, 0.000, 22:53:43.120, 1541908423120
205, -2263.81, 14510.04, 187500.00, 187500.00, -187500.02, -187500.02, -187500.02, -187500.02, 0.000, 0.000, 0.000, 22:53:43.120, 1541908423120
206, -2441.48, 14501.19, 187500.00, 187500.00, -187500.02, -187500.02, -187500.02, -187500.02, 0.000, 0.000, 0.000, 22:53:43.120, 1541908423120
207, -2601.77, 14260.32, 187500.00, 187500.00, -187500.02, -187500.02, -187500.02, -187500.02, 0.000, 0.000, 0.000, 22:53:43.120, 1541908423120
208, -2520.65, 14122.61, 187500.00, 187500.00, -187500.02, -187500.02, -187500.02, -187500.02, 0.000, 0.000, 0.000, 22:53:43.121, 1541908423121
209, -2292.46, 14448.55, 187500.00, 187500.00, -187500.02, -187500.02, -187500.02, -187500.02, 0.000, 0.000, 0.000, 22:53:43.121, 1541908423121
210, -2436.61, 14502.42, 187500.00, 187500.00, -187500.02, -187500.02, -187500.02, -187500.02, 0.000, 0.000, 0.000, 22:53:43.121, 1541908423121
211, -2626.42, 14269.00, 187500.00, 187500.00, -187500.02, -187500.02, -187500.02, -187500.02, 0.000, 0.000, 0.000, 22:53:43.121, 1541908423121
212, -2584.13, 14098.85, 187500.00, 187500.00, -187500.02, -187500.02, -187500.02, -187500.02, 0.000, 0.000, 0.000, 22:53:43.121, 1541908423121
213, -2288.51, 14404.09, 187500.00, 187500.00, -187500.02, -187500.02, -187500.02, -187500.02, 0.096, 0.816, 0.548, 22:53:43.121, 1541908423121
214, -2352.50, 14555.28, 187500.00, 187500.00, -187500.02, -187500.02, -187500.02, -187500.02, 0.000, 0.000, 0.000, 22:53:43.121, 1541908423121
215, -2556.88, 14352.52, 187500.00, 187500.00, -187500.02, -187500.02, -187500.02, -187500.02, 0.000, 0.000, 0.000, 22:53:43.121, 1541908423121
216, -2591.15, 14121.59, 187500.00, 187500.00, -187500.02, -187500.02, -187500.02, -187500.02, 0.000, 0.000, 0.000, 22:53:43.121, 1541908423121
217, -2335.33, 14322.26, 187500.00, 187500.00, -187500.02, -187500.02, -187500.02, -187500.02, 0.000, 0.000, 0.000, 22:53:43.122, 1541908423122
218, -2345.88, 14549.60, 187500.00, 187500.00, -187500.02, -187500.02, -187500.02, -187500.02, 0.000, 0.000, 0.000, 22:53:43.122, 1541908423122
219, -2556.61, 14385.69, 187500.00, 187500.00, -187500.02, -187500.02, -187500.02, -187500.02, 0.000, 0.000, 0.000, 22:53:43.122, 1541908423122
220, -2605.90, 14146.62, 187500.00, 187500.00, -187500.02, -187500.02, -187500.02, -187500.02, 0.000, 0.000, 0.000, 22:53:43.122, 1541908423122
221, -2370.98, 14258.80, 187500.00, 187500.00, -187500.02, -187500.02, -187500.02, -187500.02, 0.000, 0.000, 0.000, 22:53:43.122, 1541908423122
222, -2294.67, 14562.99, 187500.00, 187500.00, -187500.02, -187500.02, -187500.02, -187500.02, 0.000, 0.000, 0.000, 22:53:43.122, 1541908423122
223, -2505.32, 14435.18, 187500.00, 187500.00, -187500.02, -187500.02, -187500.02, -187500.02, 0.100, 0.820, 0.554, 22:53:43.122, 1541908423122
224, -2618.24, 14183.77, 187500.00, 187500.00, -187500.02, -187500.02, -187500.02, -187500.02, 0.000, 0.000, 0.000, 22:53:43.122, 1541908423122
225, -2440.41, 14197.25, 187500.00, 187500.00, -187500.02, -187500.02, -187500.02, -187500.02, 0.000, 0.000, 0.000, 22:53:43.122, 1541908423122
226, -2294.90, 14539.27, 187500.00, 187500.00, -187500.02, -187500.02, -187500.02, -187500.02, 0.000, 0.000, 0.000, 22:53:43.123, 1541908423123
227, -2479.30, 14477.25, 187500.00, 187500.00, -187500.02, -187500.02, -187500.02, -187500.02, 0.000, 0.000, 0.000, 22:53:43.123, 1541908423123
228, -2598.41, 14244.50, 187500.00, 187500.00, -187500.02, -187500.02, -187500.02, -187500.02, 0.000, 0.000, 0.000, 22:53:43.123, 1541908423123
229, -2479.34, 14149.01, 187500.00, 187500.00, -187500.02, -187500.02, -187500.02, -187500.02, 0.000, 0.000, 0.000, 22:53:43.123, 1541908423123
230, -2289.42, 14493.00, 187500.00, 187500.00, -187500.02, -187500.02, -187500.02, -187500.02, 0.000, 0.000, 0.000, 22:53:43.138, 1541908423138
231, -2446.67, 14509.97, 187500.00, 187500.00, -187500.02, -187500.02, -187500.02, -187500.02, 0.000, 0.000, 0.000, 22:53:43.139, 1541908423139
232, -2576.53, 14294.79, 187500.00, 187500.00, -187500.02, -187500.02, -187500.02, -187500.02, 0.092, 0.824, 0.560, 22:53:43.140, 1541908423140
233, -2514.75, 14134.19, 187500.00, 187500.00, -187500.02, -187500.02, -187500.02, -187500.02, 0.000, 0.000, 0.000, 22:53:43.143, 1541908423143
234, -2260.99, 14468.31, 187500.00, 187500.00, -187500.02, -187500.02, -187500.02, -187500.02, 0.000, 0.000, 0.000, 22:53:43.144, 1541908423144
235, -2382.56, 14550.58, 187500.00, 187500.00, -187500.02, -187500.02, -187500.02, -187500.02, 0.000, 0.000, 0.000, 22:53:43.144, 1541908423144
236, -2589.34, 14313.03, 187500.00, 187500.00, -187500.02, -187500.02, -187500.02, -187500.02, 0.000, 0.000, 0.000, 22:53:43.145, 1541908423145
237, -2573.45, 14110.97, 187500.00, 187500.00, -187500.02, -187500.02, -187500.02, -187500.02, 0.000, 0.000, 0.000, 22:53:43.146, 1541908423146
238, -2273.82, 14405.01, 187500.00, 187500.00, -187500.02, -187500.02, -187500.02, -187500.02, 0.000, 0.000, 0.000, 22:53:43.147, 1541908423147
239, -2332.70, 14583.75, 187500.00, 187500.00, -187500.02, -187500.02, -187500.02, -187500.02, 0.000, 0.000, 0.000, 22:53:43.147, 1541908423147
240, -2541.15, 14382.39, 187500.00, 187500.00, -187500.02, -187500.02, -187500.02, -187500.02, 0.000, 0.000, 0.000, 22:53:43.148, 1541908423148
241, -2562.36, 14155.67, 187500.00, 187500.00, -187500.02, -187500.02, -187500.02, -187500.02, 0.000, 0.000, 0.000, 22:53:43.148, 1541908423148
242, -2306.05, 14341.28, 187500.00, 187500.00, -187500.02, -187500.02, -187500.02, -187500.02, 0.090, 0.814, 0.558, 22:53:43.582, 1541908423582
243, -2303.88, 14569.72, 187500.00, 187500.00, -187500.02, -187500.02, -187500.02, -187500.02, 0.000, 0.000, 0.000, 22:53:43.582, 1541908423582
244, -2523.20, 14397.07, 187500.00, 187500.00, -187500.02, -187500.02, -187500.02, -187500.02, 0.000, 0.000, 0.000, 22:53:43.582, 1541908423582
245, -2603.24, 14127.64, 187500.00, 187500.00, -187500.02, -187500.02, -187500.02, -187500.02, 0.000, 0.000, 0.000, 22:53:43.582, 1541908423582
246, -2362.11, 14224.05, 187500.00, 187500.00, -187500.02, -187500.02, -187500.02, -187500.02, 0.000, 0.000, 0.000, 22:53:43.582, 1541908423582
247, -2265.48, 14548.24, 187500.00, 187500.00, -187500.02, -187500.02, -187500.02, -187500.02, 0.000, 0.000, 0.000, 22:53:43.582, 1541908423582
248, -2456.39, 14443.94, 187500.00, 187500.00, -187500.02, -187500.02, -187500.02, -187500.02, 0.000, 0.000, 0.000, 22:53:43.582, 1541908423582
249, -2566.54, 14193.27, 187500.00, 187500.00, -187500.02, -187500.02, -187500.02, -187500.02, 0.000, 0.000, 0.000, 22:53:43.583, 1541908423583
250, -2407.82, 14175.05, 187500.00, 187500.00, -187500.02, -187500.02, -187500.02, -187500.02, 0.000, 0.000, 0.000, 22:53:43.583, 1541908423583
251, -2238.26, 14529.13, 187500.00, 187500.00, -187500.02, -187500.02, -187500.02, -187500.02, 0.000, 0.000, 0.000, 22:53:43.583, 1541908423583
252, -2418.39, 14486.05, 187500.00, 187500.00, -187500.02, -187500.02, -187500.02, -187500.02, 0.090, 0.814, 0.556, 22:53:43.583, 1541908423583
253, -2574.34, 14229.32, 187500.00, 187500.00, -187500.02, -187500.02, -187500.02, -187500.02, 0.000, 0.000, 0.000, 22:53:43.583, 1541908423583
254, -2449.86, 14138.98, 187500.00, 187500.00, -187500.02, -187500.02, -187500.02, -187500.02, 0.000, 0.000, 0.000, 22:53:43.583, 1541908423583
255, -2232.02, 14488.56, 187500.00, 187500.00, -187500.02, -187500.02, -187500.02, -187500.02, 0.000, 0.000, 0.000, 22:53:43.583, 1541908423583
0, -2407.98, 14498.86, 187500.00, 187500.00, -187500.02, -187500.02, -187500.02, -187500.02, 0.000, 0.000, 0.000, 22:53:43.583, 1541908423583
1, -2569.42, 14272.28, 187500.00, 187500.00, -187500.02, -187500.02, -187500.02, -187500.02, 0.000, 0.000, 0.000, 22:53:43.583, 1541908423583
2, -2484.22, 14133.07, 187500.00, 187500.00, -187500.02, -187500.02, -187500.02, -187500.02, 0.000, 0.000, 0.000, 22:53:43.584, 1541908423584
3, -2227.82, 14445.84, 187500.00, 187500.00, -187500.02, -187500.02, -187500.02, -187500.02, 0.000, 0.000, 0.000, 22:53:43.584, 1541908423584
4, -2359.14, 14538.67, 187500.00, 187500.00, -187500.02, -187500.02, -187500.02, -187500.02, 0.000, 0.000, 0.000, 22:53:43.584, 1541908423584
5, -2525.17, 14345.91, 187500.00, 187500.00, -187500.02, -187500.02, -187500.02, -187500.02, 0.000, 0.000, 0.000, 22:53:43.584, 1541908423584
6, -2513.77, 14133.12, 187500.00, 187500.00, -187500.02, -187500.02, -187500.02, -187500.02, 0.096, 0.812, 0.556, 22:53:43.584, 1541908423584
7, -2265.55, 14374.54, 187500.00, 187500.00, -187500.02, -187500.02, -187500.02, -187500.02, 0.000, 0.000, 0.000, 22:53:43.584, 1541908423584
8, -2324.51, 14544.97, 187500.00, 187500.00, -187500.02, -187500.02, -187500.02, -187500.02, 0.000, 0.000, 0.000, 22:53:43.584, 1541908423584
9, -2513.43, 14359.30, 187500.00, 187500.00, -187500.02, -187500.02, -187500.02, -187500.02, 0.000, 0.000, 0.000, 22:53:43.584, 1541908423584
10, -2555.56, 14125.81, 187500.00, 187500.00, -187500.02, -187500.02, -187500.02, -187500.02, 0.000, 0.000, 0.000, 22:53:43.584, 1541908423584
11, -2292.60, 14306.99, 187500.00, 187500.00, -187500.02, -187500.02, -187500.02, -187500.02, 0.000, 0.000, 0.000, 22:53:43.584, 1541908423584
12, -2258.06, 14576.02, 187500.00, 187500.00, -187500.02, -187500.02, -187500.02, -187500.02, 0.000, 0.000, 0.000, 22:53:43.584, 1541908423584
13, -2476.28, 14424.00, 187500.00, 187500.00, -187500.02, -187500.02, -187500.02, -187500.02, 0.000, 0.000, 0.000, 22:53:43.585, 1541908423585
14, -2578.18, 14164.48, 187500.00, 187500.00, -187500.02, -187500.02, -187500.02, -187500.02, 0.000, 0.000, 0.000, 22:53:43.585, 1541908423585
15, -2377.87, 14228.90, 187500.00, 187500.00, -187500.02, -187500.02, -187500.02, -187500.02, 0.000, 0.000, 0.000, 22:53:43.585, 1541908423585
16, -2272.52, 14553.42, 187500.00, 187500.00, -187500.02, -187500.02, -187500.02, -187500.02, 0.098, 0.812, 0.552, 22:53:43.585, 1541908423585
17, -2490.52, 14430.82, 187500.00, 187500.00, -187500.02, -187500.02, -187500.02, -187500.02, 0.000, 0.000, 0.000, 22:53:43.585, 1541908423585
18, -2606.30, 14189.78, 187500.00, 187500.00, -187500.02, -187500.02, -187500.02, -187500.02, 0.000, 0.000, 0.000, 22:53:43.585, 1541908423585
19, -2404.42, 14202.39, 187500.00, 187500.00, -187500.02, -187500.02, -187500.02, -187500.02, 0.000, 0.000, 0.000, 22:53:43.585, 1541908423585
20, -2223.10, 14554.29, 187500.00, 187500.00, -187500.02, -187500.02, -187500.02, -187500.02, 0.000, 0.000, 0.000, 22:53:43.585, 1541908423585
21, -2422.42, 14505.79, 187500.00, 187500.00, -187500.02, -187500.02, -187500.02, -187500.02, 0.000, 0.000, 0.000, 22:53:43.585, 1541908423585
22, -2579.26, 14252.54, 187500.00, 187500.00, -187500.02, -187500.02, -187500.02, -187500.02, 0.000, 0.000, 0.000, 22:53:43.585, 1541908423585
23, -2464.57, 14154.17, 187500.00, 187500.00, -187500.02, -187500.02, -187500.02, -187500.02, 0.000, 0.000, 0.000, 22:53:43.585, 1541908423585
24, -2229.59, 14514.24, 187500.00, 187500.00, -187500.02, -187500.02, -187500.02, -187500.02, 0.000, 0.000, 0.000, 22:53:43.586, 1541908423586
25, -2392.40, 14531.52, 187500.00, 187500.00, -187500.02, -187500.02, -187500.02, -187500.02, 0.102, 0.820, 0.550, 22:53:43.586, 1541908423586
26, -2564.55, 14299.17, 187500.00, 187500.00, -187500.02, -187500.02, -187500.02, -187500.02, 0.000, 0.000, 0.000, 22:53:43.586, 1541908423586
27, -2498.54, 14158.31, 187500.00, 187500.00, -187500.02, -187500.02, -187500.02, -187500.02, 0.000, 0.000, 0.000, 22:53:43.586, 1541908423586
28, -2236.16, 14467.61, 187500.00, 187500.00, -187500.02, -187500.02, -187500.02, -187500.02, 0.000, 0.000, 0.000, 22:53:43.586, 1541908423586
29, -2351.20, 14570.79, 187500.00, 187500.00, -187500.02, -187500.02, -187500.02, -187500.02, 0.000, 0.000, 0.000, 22:53:43.586, 1541908423586
30, -2537.79, 14357.22, 187500.00, 187500.00, -187500.02, -187500.02, -187500.02, -187500.02, 0.000, 0.000, 0.000, 22:53:43.586, 1541908423586
31, -2537.46, 14143.83, 187500.00, 187500.00, -187500.02, -187500.02, -187500.02, -187500.02, 0.000, 0.000, 0.000, 22:53:43.586, 1541908423586
32, -2255.34, 14405.43, 187500.00, 187500.00, -187500.02, -187500.02, -187500.02, -187500.02, 0.000, 0.000, 0.000, 22:53:43.586, 1541908423586
33, -2304.22, 14582.30, 187500.00, 187500.00, -187500.02, -187500.02, -187500.02, -187500.02, 0.000, 0.000, 0.000, 22:53:43.586, 1541908423586
34, -2516.74, 14391.17, 187500.00, 187500.00, -187500.02, -187500.02, -187500.02, -187500.02, 0.000, 0.000, 0.000, 22:53:43.586, 1541908423586
35, -2550.16, 14176.66, 187500.00, 187500.00, -187500.02, -187500.02, -187500.02, -187500.02, 0.104, 0.814, 0.550, 22:53:43.587, 1541908423587
36, -2307.04, 14322.57, 187500.00, 187500.00, -187500.02, -187500.02, -187500.02, -187500.02, 0.000, 0.000, 0.000, 22:53:43.587, 1541908423587
37, -2289.47, 14566.21, 187500.00, 187500.00, -187500.02, -187500.02, -187500.02, -187500.02, 0.000, 0.000, 0.000, 22:53:43.587, 1541908423587
38, -2497.18, 14423.20, 187500.00, 187500.00, -187500.02, -187500.02, -187500.02, -187500.02, 0.000, 0.000, 0.000, 22:53:43.587, 1541908423587
39, -2552.73, 14209.94, 187500.00, 187500.00, -187500.02, -187500.02, -187500.02, -187500.02, 0.000, 0.000, 0.000, 22:53:43.587, 1541908423587
40, -2345.01, 14255.74, 187500.00, 187500.00, -187500.02, -187500.02, -187500.02, -187500.02, 0.000, 0.000, 0.000, 22:53:43.587, 1541908423587
41, -2238.62, 14571.53, 187500.00, 187500.00, -187500.02, -187500.02, -187500.02, -187500.02, 0.000, 0.000, 0.000, 22:53:43.587, 1541908423587
42, -2456.70, 14473.74, 187500.00, 187500.00, -187500.02, -187500.02, -187500.02, -187500.02, 0.000, 0.000, 0.000, 22:53:43.587, 1541908423587
43, -2588.29, 14216.76, 187500.00, 187500.00, -187500.02, -187500.02, -187500.02, -187500.02, 0.000, 0.000, 0.000, 22:53:43.587, 1541908423587
44, -2427.47, 14169.73, 187500.00, 187500.00, -187500.02, -187500.02, -187500.02, -187500.02, 0.000, 0.000, 0.000, 22:53:43.587, 1541908423587
45, -2224.38, 14544.12, 187500.00, 187500.00, -187500.02, -187500.02, -187500.02, -187500.02, 0.104, 0.816, 0.556, 22:53:43.587, 1541908423587
46, -2411.73, 14514.53, 187500.00, 187500.00, -187500.02, -187500.02, -187500.02, -187500.02, 0.000, 0.000, 0.000, 22:53:43.588, 1541908423588
47, -2549.73, 14284.71, 187500.00, 187500.00, -187500.02, -187500.02, -187500.02, -187500.02, 0.000, 0.000, 0.000, 22:53:43.588, 1541908423588
48, -2452.48, 14158.73, 187500.00, 187500.00, -187500.02, -187500.02, -187500.02, -187500.02, 0.000, 0.000, 0.000, 22:53:43.588, 1541908423588
49, -2235.64, 14481.20, 187500.00, 187500.00, -187500.02, -187500.02, -187500.02, -187500.02, 0.000, 0.000, 0.000, 22:53:43.588, 1541908423588
50, -2389.22, 14525.53, 187500.00, 187500.00, -187500.02, -187500.02, -187500.02, -187500.02, 0.000, 0.000, 0.000, 22:53:43.588, 1541908423588
51, -2560.33, 14300.49, 187500.00, 187500.00, -187500.02, -187500.02, -187500.02, -187500.02, 0.000, 0.000, 0.000, 22:53:43.588, 1541908423588
52, -2494.48, 14136.49, 187500.00, 187500.00, -187500.02, -187500.02, -187500.02, -187500.02, 0.000, 0.000, 0.000, 22:53:43.588, 1541908423588
53, -2228.16, 14452.73, 187500.00, 187500.00, -187500.02, -187500.02, -187500.02, -187500.02, 0.000, 0.000, 0.000, 22:53:43.588, 1541908423588
54, -2332.45, 14570.68, 187500.00, 187500.00, -187500.02, -187500.02, -187500.02, -187500.02, 0.000, 0.000, 0.000, 22:53:43.588, 1541908423588
55, -2528.36, 14358.18, 187500.00, 187500.00, -187500.02, -187500.02, -187500.02, -187500.02, 0.108, 0.814, 0.562, 22:53:43.588, 1541908423588
56, -2547.34, 14124.31, 187500.00, 187500.00, -187500.02, -187500.02, -187500.02, -187500.02, 0.000, 0.000, 0.000, 22:53:43.588, 1541908423588
57, -2285.26, 14345.82, 187500.00, 187500.00, -187500.02, -187500.02, -187500.02, -187500.02, 0.000, 0.000, 0.000, 22:53:43.588, 1541908423588
58, -2293.18, 14567.82, 187500.00, 187500.00, -187500.02, -187500.02, -187500.02, -187500.02, 0.000, 0.000, 0.000, 22:53:43.589, 1541908423589
59, -2499.28, 14390.19, 187500.00, 187500.00, -187500.02, -187500.02, -187500.02, -187500.02, 0.000, 0.000, 0.000, 22:53:43.589, 1541908423589
60, -2558.69, 14152.81, 187500.00, 187500.00, -187500.02, -187500.02, -187500.02, -187500.02, 0.000, 0.000, 0.000, 22:53:43.589, 1541908423589
61, -2307.64, 14288.55, 187500.00, 187500.00, -187500.02, -187500.02, -187500.02, -187500.02, 0.000, 0.000, 0.000, 22:53:43.589, 1541908423589
62, -2256.90, 14565.85, 187500.00, 187500.00, -187500.02, -187500.02, -187500.02, -187500.02, 0.000, 0.000, 0.000, 22:53:43.589, 1541908423589
63, -2463.48, 14429.68, 187500.00, 187500.00, -187500.02, -187500.02, -187500.02, -187500.02, 0.000, 0.000, 0.000, 22:53:43.589, 1541908423589
64, -2576.40, 14154.84, 187500.00, 187500.00, -187500.02, -187500.02, -187500.02, -187500.02, 0.112, 0.820, 0.562, 22:53:43.589, 1541908423589
65, -2370.98, 14221.03, 187500.00, 187500.00, -187500.02, -187500.02, -187500.02, -187500.02, 0.000, 0.000, 0.000, 22:53:43.589, 1541908423589
66, -2222.79, 14572.98, 187500.00, 187500.00, -187500.02, -187500.02, -187500.02, -187500.02, 0.000, 0.000, 0.000, 22:53:43.589, 1541908423589
67, -2430.95, 14476.91, 187500.00, 187500.00, -187500.02, -187500.02, -187500.02, -187500.02, 0.000, 0.000, 0.000, 22:53:43.589, 1541908423589
68, -2564.53, 14223.46, 187500.00, 187500.00, -187500.02, -187500.02, -187500.02, -187500.02, 0.000, 0.000, 0.000, 22:53:43.589, 1541908423589
69, -2416.94, 14171.79, 187500.00, 187500.00, -187500.02, -187500.02, -187500.02, -187500.02, 0.000, 0.000, 0.000, 22:53:43.593, 1541908423593
70, -2232.16, 14521.24, 187500.00, 187500.00, -187500.02, -187500.02, -187500.02, -187500.02, 0.000, 0.000, 0.000, 22:53:43.593, 1541908423593
71, -2419.00, 14491.93, 187500.00, 187500.00, -187500.02, -187500.02, -187500.02, -187500.02, 0.000, 0.000, 0.000, 22:53:43.594, 1541908423594
72, -2579.53, 14243.40, 187500.00, 187500.00, -187500.02, -187500.02, -187500.02, -187500.02, 0.000, 0.000, 0.000, 22:53:43.594, 1541908423594
73, -2478.32, 14129.90, 187500.00, 187500.00, -187500.02, -187500.02, -187500.02, -187500.02, 0.000, 0.000, 0.000, 22:53:43.594, 1541908423594
74, -2214.43, 14492.60, 187500.00, 187500.00, -187500.02, -187500.02, -187500.02, -187500.02, 0.110, 0.816, 0.564, 22:53:43.594, 1541908423594
75, -2372.17, 14536.37, 187500.00, 187500.00, -187500.02, -187500.02, -187500.02, -187500.02, 0.000, 0.000, 0.000, 22:53:43.595, 1541908423595
76, -2567.81, 14294.81, 187500.00, 187500.00, -187500.02, -187500.02, -187500.02, -187500.02, 0.000, 0.000, 0.000, 22:53:43.595, 1541908423595
77, -2513.63, 14124.67, 187500.00, 187500.00, -187500.02, -187500.02, -187500.02, -187500.02, 0.000, 0.000, 0.000, 22:53:43.595, 1541908423595
78, -2236.31, 14419.20, 187500.00, 187500.00, -187500.02, -187500.02, -187500.02, -187500.02, 0.000, 0.000, 0.000, 22:53:43.596, 1541908423596
79, -2343.16, 14541.84, 187500.00, 187500.00, -187500.02, -187500.02, -187500.02, -187500.02, 0.000, 0.000, 0.000, 22:53:43.597, 1541908423597
80, -2530.82, 14331.69, 187500.00, 187500.00, -187500.02, -187500.02, -187500.02, -187500.02, 0.000, 0.000, 0.000, 22:53:43.598, 1541908423598
81, -2545.64, 14119.02, 187500.00, 187500.00, -187500.02, -187500.02, -187500.02, -187500.02, 0.000, 0.000, 0.000, 22:53:43.598, 1541908423598
82, -2286.05, 14340.90, 187500.00, 187500.00, -187500.02, -187500.02, -187500.02, -187500.02, 0.000, 0.000, 0.000, 22:53:43.598, 1541908423598
83, -2283.92, 14567.55, 187500.00, 187500.00, -187500.02, -187500.02, -187500.02, -187500.02, 0.000, 0.000, 0.000, 22:53:43.598, 1541908423598
84, -2491.66, 14392.94, 187500.00, 187500.00, -187500.02, -187500.02, -187500.02, -187500.02, 0.102, 0.810, 0.564, 22:53:43.599, 1541908423599
85, -2544.50, 14152.63, 187500.00, 187500.00, -187500.02, -187500.02, -187500.02, -187500.02, 0.000, 0.000, 0.000, 22:53:43.599, 1541908423599
86, -2294.34, 14289.74, 187500.00, 187500.00, -187500.02, -187500.02, -187500.02, -187500.02, 0.000, 0.000, 0.000, 22:53:43.599, 1541908423599
87, -2231.24, 14573.02, 187500.00, 187500.00, -187500.02, -187500.02, -187500.02, -187500.02, 0.000, 0.000, 0.000, 22:53:43.599, 1541908423599
88, -2448.75, 14434.17, 187500.00, 187500.00, -187500.02, -187500.02, -187500.02, -187500.02, 0.000, 0.000, 0.000, 22:53:43.599, 1541908423599
89, -2527.56, 14224.05, 187500.00, 187500.00, -187500.02, -187500.02, -187500.02, -187500.02, 0.000, 0.000, 0.000, 22:53:43.599, 1541908423599
90, -2331.89, 14240.92, 187500.00, 187500.00, -187500.02, -187500.02, -187500.02, -187500.02, 0.000, 0.000, 0.000, 22:53:43.599, 1541908423599
91, -2205.63, 14567.32, 187500.00, 187500.00, -187500.02, -187500.02, -187500.02, -187500.02, 0.000, 0.000, 0.000, 22:53:43.600, 1541908423600
92, -2413.90, 14478.57, 187500.00, 187500.00, -187500.02, -187500.02, -187500.02, -187500.02, 0.000, 0.000, 0.000, 22:53:43.600, 1541908423600
93, -2550.31, 14234.04, 187500.00, 187500.00, -187500.02, -187500.02, -187500.02, -187500.02, 0.000, 0.000, 0.000, 22:53:43.600, 1541908423600
94, -2420.92, 14168.46, 187500.00, 187500.00, -187500.02, -187500.02, -187500.02, -187500.02, 0.100, 0.814, 0.562, 22:53:43.601, 1541908423601
95, -2215.26, 14519.78, 187500.00, 187500.00, -187500.02, -187500.02, -187500.02, -187500.02, 0.000, 0.000, 0.000, 22:53:43.601, 1541908423601
96, -2400.06, 14512.05, 187500.00, 187500.00, -187500.02, -187500.02, -187500.02, -187500.02, 0.000, 0.000, 0.000, 22:53:43.601, 1541908423601
97, -2580.53, 14258.76, 187500.00, 187500.00, -187500.02, -187500.02, -187500.02, -187500.02, 0.000, 0.000, 0.000, 22:53:43.601, 1541908423601
98, -2495.64, 14105.25, 187500.00, 187500.00, -187500.02, -187500.02, -187500.02, -187500.02, 0.000, 0.000, 0.000, 22:53:43.601, 1541908423601
99, -2226.30, 14470.05, 187500.00, 187500.00, -187500.02, -187500.02, -187500.02, -187500.02, 0.000, 0.000, 0.000, 22:53:43.601, 1541908423601
100, -2361.10, 14558.43, 187500.00, 187500.00, -187500.02, -187500.02, -187500.02, -187500.02, 0.000, 0.000, 0.000, 22:53:43.602, 1541908423602
101, -2543.74, 14341.97, 187500.00, 187500.00, -187500.02, -187500.02, -187500.02, -187500.02, 0.000, 0.000, 0.000, 22:53:43.602, 1541908423602
102, -2514.06, 14137.43, 187500.00, 187500.00, -187500.02, -187500.02, -187500.02, -187500.02, 0.000, 0.000, 0.000, 22:53:43.602, 1541908423602
103, -2251.94, 14395.24, 187500.00, 187500.00, -187500.02, -187500.02, -187500.02, -187500.02, 0.000, 0.000, 0.000, 22:53:43.602, 1541908423602
104, -2337.01, 14539.81, 187500.00, 187500.00, -187500.02, -187500.02, -187500.02, -187500.02, 0.104, 0.820, 0.558, 22:53:43.603, 1541908423603
105, -2534.33, 14343.54, 187500.00, 187500.00, -187500.02, -187500.02, -187500.02, -187500.02, 0.000, 0.000, 0.000, 22:53:43.606, 1541908423606
106, -2540.16, 14123.80, 187500.00, 187500.00, -187500.02, -187500.02, -187500.02, -187500.02, 0.000, 0.000, 0.000, 22:53:44.060, 1541908424060
107, -2285.98, 14304.36, 187500.00, 187500.00, -187500.02, -187500.02, -187500.02, -187500.02, 0.000, 0.000, 0.000, 22:53:44.061, 1541908424061
108, -2279.32, 14544.41, 187500.00, 187500.00, -187500.02, -187500.02, -187500.02, -187500.02, 0.000, 0.000, 0.000, 22:53:44.061, 1541908424061
109, -2463.79, 14402.28, 187500.00, 187500.00, -187500.02, -187500.02, -187500.02, -187500.02, 0.000, 0.000, 0.000, 22:53:44.061, 1541908424061
110, -2539.20, 14140.23, 187500.00, 187500.00, -187500.02, -187500.02, -187500.02, -187500.02, 0.000, 0.000, 0.000, 22:53:44.061, 1541908424061
111, -2328.98, 14229.81, 187500.00, 187500.00, -187500.02, -187500.02, -187500.02, -187500.02, 0.000, 0.000, 0.000, 22:53:44.061, 1541908424061
112, -2245.77, 14555.21, 187500.00, 187500.00, -187500.02, -187500.02, -187500.02, -187500.02, 0.000, 0.000, 0.000, 22:53:44.061, 1541908424061
113, -2439.89, 14449.87, 187500.00, 187500.00, -187500.02, -187500.02, -187500.02, -187500.02, 0.106, 0.818, 0.556, 22:53:44.061, 1541908424061
114, -2550.83, 14190.07, 187500.00, 187500.00, -187500.02, -187500.02, -187500.02, -187500.02, 0.000, 0.000, 0.000, 22:53:44.061, 1541908424061
115, -2372.10, 14188.24, 187500.00, 187500.00, -187500.02, -187500.02, -187500.02, -187500.02, 0.000, 0.000, 0.000, 22:53:44.062, 1541908424062
116, -2208.73, 14545.42, 187500.00, 187500.00, -187500.02, -187500.02, -187500.02, -187500.02, 0.000, 0.000, 0.000, 22:53:44.063, 1541908424063
117, -2402.86, 14485.92, 187500.00, 187500.00, -187500.02, -187500.02, -187500.02, -187500.02, 0.000, 0.000, 0.000, 22:53:44.063, 1541908424063
118, -2554.49, 14225.77, 187500.00, 187500.00, -187500.02, -187500.02, -187500.02, -187500.02, 0.000, 0.000, 0.000, 22:53:44.063, 1541908424063
119, -2425.41, 14145.26, 187500.00, 187500.00, -187500.02, -187500.02, -187500.02, -187500.02, 0.000, 0.000, 0.000, 22:53:44.064, 1541908424064
120, -2188.68, 14531.49, 187500.00, 187500.00, -187500.02, -187500.02, -187500.02, -187500.02, 0.000, 0.000, 0.000, 22:53:44.064, 1541908424064
121, -2354.91, 14532.08, 187500.00, 187500.00, -187500.02, -187500.02, -187500.02, -187500.02, 0.000, 0.000, 0.000, 22:53:44.064, 1541908424064
122, -2532.99, 14280.82, 187500.00, 187500.00, -187500.02, -187500.02, -187500.02, -187500.02, 0.000, 0.000, 0.000, 22:53:44.064, 1541908424064
123, -2474.76, 14119.40, 187500.00, 187500.00, -187500.02, -187500.02, -187500.02, -187500.02, 0.104, 0.820, 0.552, 22:53:44.066, 1541908424066
124, -2213.05, 14455.07, 187500.00, 187500.00, -187500.02, -187500.02, -187500.02, -187500.02, 0.000, 0.000, 0.000, 22:53:44.067, 1541908424067
125, -2311.33, 14558.88, 187500.00, 187500.00, -187500.02, -187500.02, -187500.02, -187500.02, 0.000, 0.000, 0.000, 22:53:44.069, 1541908424069
126, -2510.82, 14335.38, 187500.00, 187500.00, -187500.02, -187500.02, -187500.02, -187500.02, 0.000, 0.000, 0.000, 22:53:44.071, 1541908424071
127, -2505.45, 14127.62, 187500.00, 187500.00, -187500.02, -187500.02, -187500.02, -187500.02, 0.000, 0.000, 0.000, 22:53:44.073, 1541908424073
128, -2219.98, 14407.71, 187500.00, 187500.00, -187500.02, -187500.02, -187500.02, -187500.02, 0.000, 0.000, 0.000, 22:53:44.073, 1541908424073
129, -2267.27, 14583.28, 187500.00, 187500.00, -187500.02, -187500.02, -187500.02, -187500.02, 0.000, 0.000, 0.000, 22:53:44.074, 1541908424074
130, -2476.15, 14380.40, 187500.00, 187500.00, -187500.02, -187500.02, -187500.02, -187500.02, 0.000, 0.000, 0.000, 22:53:44.074, 1541908424074
131, -2533.88, 14129.63, 187500.00, 187500.00, -187500.02, -187500.02, -187500.02, -187500.02, 0.000, 0.000, 0.000, 22:53:44.074, 1541908424074
132, -2250.91, 14322.19, 187500.00, 187500.00, -187500.02, -187500.02, -187500.02, -187500.02, 0.000, 0.000, 0.000, 22:53:44.075, 1541908424075
133, -2210.48, 14595.24, 187500.00, 187500.00, -187500.02, -187500.02, -187500.02, -187500.02, 0.100, 0.822, 0.558, 22:53:44.075, 1541908424075
134, -2420.18, 14445.66, 187500.00, 187500.00, -187500.02, -187500.02, -187500.02, -187500.02, 0.000, 0.000, 0.000, 22:53:44.075, 1541908424075
135, -2513.25, 14177.06, 187500.00, 187500.00, -187500.02, -187500.02, -187500.02, -187500.02, 0.000, 0.000, 0.000, 22:53:44.075, 1541908424075
136, -2287.75, 14259.83, 187500.00, 187500.00, -187500.02, -187500.02, -187500.02, -187500.02, 0.000, 0.000, 0.000, 22:53:44.075, 1541908424075
137, -2186.40, 14588.07, 187500.00, 187500.00, -187500.02, -187500.02, -187500.02, -187500.02, 0.000, 0.000, 0.000, 22:53:44.075, 1541908424075
138, -2404.35, 14471.50, 187500.00, 187500.00, -187500.02, -187500.02, -187500.02, -187500.02, 0.000, 0.000, 0.000, 22:53:44.075, 1541908424075
139, -2512.02, 14215.11, 187500.00, 187500.00, -187500.02, -187500.02, -187500.02, -187500.02, 0.000, 0.000, 0.000, 22:53:44.075, 1541908424075
140, -2316.78, 14219.04, 187500.00, 187500.00, -187500.02, -187500.02, -187500.02, -187500.02, 0.000, 0.000, 0.000, 22:53:44.086, 1541908424086
141, -2147.22, 14570.88, 187500.00, 187500.00, -187500.02, -187500.02, -187500.02, -187500.02, 0.000, 0.000, 0.000, 22:53:44.087, 1541908424087
142, -2350.58, 14510.37, 187500.00, 187500.00, -187500.02, -187500.02, -187500.02, -187500.02, 0.000, 0.000, 0.000, 22:53:44.087, 1541908424087
143, -2506.68, 14249.95, 187500.00, 187500.00, -187500.02, -187500.02, -187500.02, -187500.02, 0.094, 0.822, 0.560, 22:53:44.087, 1541908424087
144, -2397.69, 14147.29, 187500.00, 187500.00, -187500.02, -187500.02, -187500.02, -187500.02, 0.000, 0.000, 0.000, 22:53:44.087, 1541908424087
145, -2144.81, 14530.56, 187500.00, 187500.00, -187500.02, -187500.02, -187500.02, -187500.02, 0.000, 0.000, 0.000, 22:53:44.087, 1541908424087
146, -2305.85, 14550.00, 187500.00, 187500.00, -187500.02, -187500.02, -187500.02, -187500.02, 0.000, 0.000, 0.000, 22:53:44.087, 1541908424087
147, -2495.55, 14300.49, 187500.00, 187500.00, -187500.02, -187500.02, -187500.02, -187500.02, 0.000, 0.000, 0.000, 22:53:44.087, 1541908424087
148, -2409.56, 14147.18, 187500.00, 187500.00, -187500.02, -187500.02, -187500.02, -187500.02, 0.000, 0.000, 0.000, 22:53:44.088, 1541908424088
149, -2153.97, 14462.29, 187500.00, 187500.00, -187500.02, -187500.02, -187500.02, -187500.02, 0.000, 0.000, 0.000, 22:53:44.088, 1541908424088
150, -2256.03, 14579.10, 187500.00, 187500.00, -187500.02, -187500.02, -187500.02, -187500.02, 0.000, 0.000, 0.000, 22:53:44.088, 1541908424088
151, -2449.06, 14366.27, 187500.00, 187500.00, -187500.02, -187500.02, -187500.02, -187500.02, 0.000, 0.000, 0.000, 22:53:44.088, 1541908424088
152, -2456.70, 14144.76, 187500.00, 187500.00, -187500.02, -187500.02, -187500.02, -187500.02, 0.092, 0.816, 0.560, 22:53:44.088, 1541908424088
153, -2188.73, 14391.84, 187500.00, 187500.00, -187500.02, -187500.02, -187500.02, -187500.02, 0.000, 0.000, 0.000, 22:53:44.088, 1541908424088
154, -2241.72, 14569.20, 187500.00, 187500.00, -187500.02, -187500.02, -187500.02, -187500.02, 0.000, 0.000, 0.000, 22:53:44.088, 1541908424088
155, -2426.55, 14402.86, 187500.00, 187500.00, -187500.02, -187500.02, -187500.02, -187500.02, 0.000, 0.000, 0.000, 22:53:44.088, 1541908424088
156, -2457.26, 14180.66, 187500.00, 187500.00, -187500.02, -187500.02, -187500.02, -187500.02, 0.000, 0.000, 0.000, 22:53:44.089, 1541908424089
157, -2206.36, 14345.71, 187500.00, 187500.00, -187500.02, -187500.02, -187500.02, -187500.02, 0.000, 0.000, 0.000, 22:53:44.089, 1541908424089
158, -2194.87, 14595.55, 187500.00, 187500.00, -187500.02, -187500.02, -187500.02, -187500.02, 0.000, 0.000, 0.000, 22:53:44.089, 1541908424089
159, -2403.73, 14446.20, 187500.00, 187500.00, -187500.02, -187500.02, -187500.02, -187500.02, 0.000, 0.000, 0.000, 22:53:44.089, 1541908424089
160, -2488.42, 14191.64, 187500.00, 187500.00, -187500.02, -187500.02, -187500.02, -187500.02, 0.000, 0.000, 0.000, 22:53:44.089, 1541908424089
161, -2265.59, 14263.34, 187500.00, 187500.00, -187500.02, -187500.02, -187500.02, -187500.02, 0.000, 0.000, 0.000, 22:53:44.089, 1541908424089
162, -2173.35, 14573.99, 187500.00, 187500.00, -187500.02, -187500.02, -187500.02, -187500.02, 0.094, 0.812, 0.564, 22:53:44.089, 1541908424089
163, -2395.66, 14457.33, 187500.00, 187500.00, -187500.02, -187500.02, -187500.02, -187500.02, 0.000, 0.000, 0.000, 22:53:44.089, 1541908424089
164, -2506.50, 14204.71, 187500.00, 187500.00, -187500.02, -187500.02, -187500.02, -187500.02, 0.000, 0.000, 0.000, 22:53:44.089, 1541908424089
165, -2356.34, 14168.50, 187500.00, 187500.00, -187500.02, -187500.02, -187500.02, -187500.02, 0.000, 0.000, 0.000, 22:53:44.090, 1541908424090
166, -2189.33, 14516.92, 187500.00, 187500.00, -187500.02, -187500.02, -187500.02, -187500.02, 0.000, 0.000, 0.000, 22:53:44.090, 1541908424090
167, -2362.11, 14480.04, 187500.00, 187500.00, -187500.02, -187500.02, -187500.02, -187500.02, 0.000, 0.000, 0.000, 22:53:44.090, 1541908424090
168, -2508.74, 14240.07, 187500.00, 187500.00, -187500.02, -187500.02, -187500.02, -187500.02, 0.000, 0.000, 0.000, 22:53:44.090, 1541908424090
169, -2411.82, 14128.38, 187500.00, 187500.00, -187500.02, -187500.02, -187500.02, -187500.02, 0.000, 0.000, 0.000, 22:53:44.090, 1541908424090
170, -2170.26, 14492.31, 187500.00, 187500.00, -187500.02, -187500.02, -187500.02, -187500.02, 0.000, 0.000, 0.000, 22:53:44.090, 1541908424090
171, -2314.57, 14525.17, 187500.00, 187500.00, -187500.02, -187500.02, -187500.02, -187500.02, 0.000, 0.000, 0.000, 22:53:44.090, 1541908424090
172, -2491.50, 14279.50, 187500.00, 187500.00, -187500.02, -187500.02, -187500.02, -187500.02, 0.098, 0.812, 0.560, 22:53:44.091, 1541908424091
173, -2452.93, 14098.70, 187500.00, 187500.00, -187500.02, -187500.02, -187500.02, -187500.02, 0.000, 0.000, 0.000, 22:53:44.091, 1541908424091
174, -2178.60, 14433.91, 187500.00, 187500.00, -187500.02, -187500.02, -187500.02, -187500.02, 0.000, 0.000, 0.000, 22:53:44.091, 1541908424091
175, -2260.21, 14562.14, 187500.00, 187500.00, -187500.02, -187500.02, -187500.02, -187500.02, 0.000, 0.000, 0.000, 22:53:44.092, 1541908424092
176, -2464.21, 14338.11, 187500.00, 187500.00, -187500.02, -187500.02, -187500.02, -187500.02, 0.000, 0.000, 0.000, 22:53:44.093, 1541908424093
177, -2470.78, 14122.84, 187500.00, 187500.00, -187500.02, -187500.02, -187500.02, -187500.02, 0.000, 0.000, 0.000, 22:53:44.093, 1541908424093
178, -2209.27, 14359.74, 187500.00, 187500.00, -187500.02, -187500.02, -187500.02, -187500.02, 0.000, 0.000, 0.000, 22:53:44.093, 1541908424093
179, -2232.00, 14567.46, 187500.00, 187500.00, -187500.02, -187500.02, -187500.02, -187500.02, 0.000, 0.000, 0.000, 22:53:44.094, 1541908424094
180, -2441.41, 14381.51, 187500.00, 187500.00, -187500.02, -187500.02, -187500.02, -187500.02, 0.000, 0.000, 0.000, 22:53:44.094, 1541908424094
181, -2490.25, 14148.30, 187500.00, 187500.00, -187500.02, -187500.02, -187500.02, -187500.02, 0.000, 0.000, 0.000, 22:53:44.094, 1541908424094
182, -2233.43, 14304.98, 187500.00, 187500.00, -187500.02, -187500.02, -187500.02, -187500.02, 0.094, 0.816, 0.560, 22:53:44.094, 1541908424094
183, -2185.87, 14578.43, 187500.00, 187500.00, -187500.02, -187500.02, -187500.02, -187500.02, 0.000, 0.000, 0.000, 22:53:44.094, 1541908424094
184, -2409.83, 14428.30, 187500.00, 187500.00, -187500.02, -187500.02, -187500.02, -187500.02, 0.000, 0.000, 0.000, 22:53:44.094, 1541908424094
185, -2502.64, 14179.81, 187500.00, 187500.00, -187500.02, -187500.02, -187500.02, -187500.02, 0.000, 0.000, 0.000, 22:53:44.094, 1541908424094
186, -2305.34, 14220.02, 187500.00, 187500.00, -187500.02, -187500.02, -187500.02, -187500.02, 0.000, 0.000, 0.000, 22:53:44.095, 1541908424095
187, -2181.35, 14552.19, 187500.00, 187500.00, -187500.02, -187500.02, -187500.02, -187500.02, 0.000, 0.000, 0.000, 22:53:44.095, 1541908424095
188, -2391.84, 14453.42, 187500.00, 187500.00, -187500.02, -187500.02, -187500.02, -187500.02, 0.000, 0.000, 0.000, 22:53:44.095, 1541908424095
189, -2514.88, 14207.95, 187500.00, 187500.00, -187500.02, -187500.02, -187500.02, -187500.02, 0.000, 0.000, 0.000, 22:53:44.095, 1541908424095
190, -2365.69, 14158.85, 187500.00, 187500.00, -187500.02, -187500.02, -187500.02, -187500.02, 0.000, 0.000, 0.000, 22:53:44.095, 1541908424095
191, -2171.40, 14525.75, 187500.00, 187500.00, -187500.02, -187500.02, -187500.02, -187500.02, 0.000, 0.000, 0.000, 22:53:44.095, 1541908424095
192, -2348.81, 14501.66, 187500.00, 187500.00, -187500.02, -187500.02, -187500.02, -187500.02, 0.094, 0.820, 0.562, 22:53:44.095, 1541908424095
193, -2508.60, 14255.61, 187500.00, 187500.00, -187500.02, -187500.02, -187500.02, -187500.02, 0.000, 0.000, 0.000, 22:53:44.095, 1541908424095
194, -2402.16, 14141.81, 187500.00, 187500.00, -187500.02, -187500.02, -187500.02, -187500.02, 0.000, 0.000, 0.000, 22:53:44.096, 1541908424096
195, -2168.16, 14478.99, 187500.00, 187500.00, -187500.02, -187500.02, -187500.02, -187500.02, 0.000, 0.000, 0.000, 22:53:44.096, 1541908424096
196, -2320.33, 14530.94, 187500.00, 187500.00, -187500.02, -187500.02, -187500.02, -187500.02, 0.000, 0.000, 0.000, 22:53:44.096, 1541908424096
197, -2479.23, 14331.36, 187500.00, 187500.00, -187500.02, -187500.02, -187500.02, -187500.02, 0.000, 0.000, 0.000, 22:53:44.097, 1541908424097
198, -2429.41, 14144.94, 187500.00, 187500.00, -187500.02, -187500.02, -187500.02, -187500.02, 0.000, 0.000, 0.000, 22:53:44.100, 1541908424100
199, -2169.50, 14425.46, 187500.00, 187500.00, -187500.02, -187500.02, -187500.02, -187500.02, 0.000, 0.000, 0.000, 22:53:44.100, 1541908424100
200, -2267.76, 14549.67, 187500.00, 187500.00, -187500.02, -187500.02, -187500.02, -187500.02, 0.000, 0.000, 0.000, 22:53:44.100, 1541908424100
201, -2450.89, 14343.47, 187500.00, 187500.00, -187500.02, -187500.02, -187500.02, -187500.02, 0.100, 0.820, 0.564, 22:53:44.100, 1541908424100
202, -2444.30, 14123.15, 187500.00, 187500.00, -187500.02, -187500.02, -187500.02, -187500.02, 0.000, 0.000, 0.000, 22:53:44.100, 1541908424100
203, -2169.77, 14348.41, 187500.00, 187500.00, -187500.02, -187500.02, -187500.02, -187500.02, 0.000, 0.000, 0.000, 22:53:44.100, 1541908424100
204, -2184.26, 14581.07, 187500.00, 187500.00, -187500.02, -187500.02, -187500.02, -187500.02, 0.000, 0.000, 0.000, 22:53:44.100, 1541908424100
205, -2402.52, 14411.58, 187500.00, 187500.00, -187500.02, -187500.02, -187500.02, -187500.02, 0.000, 0.000, 0.000, 22:53:44.101, 1541908424101
206, -2456.48, 14169.64, 187500.00, 187500.00, -187500.02, -187500.02, -187500.02, -187500.02, 0.000, 0.000, 0.000, 22:53:44.101, 1541908424101
207, -2213.63, 14301.50, 187500.00, 187500.00, -187500.02, -187500.02, -187500.02, -187500.02, 0.000, 0.000, 0.000, 22:53:44.101, 1541908424101
208, -2161.57, 14585.14, 187500.00, 187500.00, -187500.02, -187500.02, -187500.02, -187500.02, 0.000, 0.000, 0.000, 22:53:44.101, 1541908424101
209, -2380.66, 14442.56, 187500.00, 187500.00, -187500.02, -187500.02, -187500.02, -187500.02, 0.000, 0.000, 0.000, 22:53:44.101, 1541908424101
210, -2464.73, 14195.19, 187500.00, 187500.00, -187500.02, -187500.02, -187500.02, -187500.02, 0.000, 0.000, 0.000, 22:53:44.101, 1541908424101
211, -2255.49, 14234.60, 187500.00, 187500.00, -187500.02, -187500.02, -187500.02, -187500.02, 0.104, 0.810, 0.570, 22:53:44.101, 1541908424101
212, -2127.86, 14580.22, 187500.00, 187500.00, -187500.02, -187500.02, -187500.02, -187500.02, 0.000, 0.000, 0.000, 22:53:44.101, 1541908424101
213, -2313.56, 14507.20, 187500.00, 187500.00, -187500.02, -187500.02, -187500.02, -187500.02, 0.000, 0.000, 0.000, 22:53:44.101, 1541908424101
214, -2435.96, 14262.56, 187500.00, 187500.00, -187500.02, -187500.02, -187500.02, -187500.02, 0.000, 0.000, 0.000, 22:53:44.102, 1541908424102
215, -2310.14, 14189.87, 187500.00, 187500.00, -187500.02, -187500.02, -187500.02, -187500.02, 0.000, 0.000, 0.000, 22:53:44.102, 1541908424102
216, -2119.44, 14537.66, 187500.00, 187500.00, -187500.02, -187500.02, -187500.02, -187500.02, 0.000, 0.000, 0.000, 22:53:44.102, 1541908424102
217, -2289.42, 14527.29, 187500.00, 187500.00, -187500.02, -187500.02, -187500.02, -187500.02, 0.000, 0.000, 0.000, 22:53:44.102, 1541908424102
218, -2443.81, 14283.97, 187500.00, 187500.00, -187500.02, -187500.02, -187500.02, -187500.02, 0.000, 0.000, 0.000, 22:53:44.102, 1541908424102
219, -2373.49, 14140.34, 187500.00, 187500.00, -187500.02, -187500.02, -187500.02, -187500.02, 0.000, 0.000, 0.000, 22:53:44.102, 1541908424102
220, -2112.60, 14502.97, 187500.00, 187500.00, -187500.02, -187500.02, -187500.02, -187500.02, 0.000, 0.000, 0.000, 22:53:44.102, 1541908424102
221, -2234.41, 14585.41, 187500.00, 187500.00, -187500.02, -187500.02, -187500.02, -187500.02, 0.098, 0.806, 0.568, 22:53:44.102, 1541908424102
222, -2424.72, 14350.71, 187500.00, 187500.00, -187500.02, -187500.02, -187500.02, -187500.02, 0.000, 0.000, 0.000, 22:53:44.103, 1541908424103
223, -2410.43, 14152.99, 187500.00, 187500.00, -187500.02, -187500.02, -187500.02, -187500.02, 0.000, 0.000, 0.000, 22:53:44.103, 1541908424103
224, -2148.25, 14442.62, 187500.00, 187500.00, -187500.02, -187500.02, -187500.02, -187500.02, 0.000, 0.000, 0.000, 22:53:44.103, 1541908424103
225, -2216.94, 14591.69, 187500.00, 187500.00, -187500.02, -187500.02, -187500.02, -187500.02, 0.000, 0.000, 0.000, 22:53:44.103, 1541908424103
226, -2411.57, 14401.05, 187500.00, 187500.00, -187500.02, -187500.02, -187500.02, -187500.02, 0.000, 0.000, 0.000, 22:53:44.103, 1541908424103
227, -2431.89, 14178.90, 187500.00, 187500.00, -187500.02, -187500.02, -187500.02, -187500.02, 0.000, 0.000, 0.000, 22:53:44.411, 1541908424411
228, -2168.23, 14385.38, 187500.00, 187500.00, -187500.02, -187500.02, -187500.02, -187500.02, 0.000, 0.000, 0.000, 22:53:44.412, 1541908424412
229, -2153.43, 14631.21, 187500.00, 187500.00, -187500.02, -187500.02, -187500.02, -187500.02, 0.000, 0.000, 0.000, 22:53:44.412, 1541908424412
230, -2365.57, 14465.36, 187500.00, 187500.00, -187500.02, -187500.02, -187500.02, -187500.02, 0.000, 0.000, 0.000, 22:53:44.412, 1541908424412
231, -2450.27, 14200.38, 187500.00, 187500.00, -187500.02, -187500.02, -187500.02, -187500.02, 0.092, 0.812, 0.568, 22:53:44.412, 1541908424412
232, -2218.32, 14311.20, 187500.00, 187500.00, -187500.02, -187500.02, -187500.02, -187500.02, 0.000, 0.000, 0.000, 22:53:44.412, 1541908424412
233, -2136.09, 14622.44, 187500.00, 187500.00, -187500.02, -187500.02, -187500.02, -187500.02, 0.000, 0.000, 0.000, 22:53:44.412, 1541908424412
234, -2342.31, 14504.63, 187500.00, 187500.00, -187500.02, -187500.02, -187500.02, -187500.02, 0.000, 0.000, 0.000, 22:53:44.412, 1541908424412
235, -2451.41, 14246.76, 187500.00, 187500.00, -187500.02, -187500.02, -187500.02, -187500.02, 0.000, 0.000, 0.000, 22:53:44.413, 1541908424413
236, -2264.28, 14258.27, 187500.00, 187500.00, -187500.02, -187500.02, -187500.02, -187500.02, 0.000, 0.000, 0.000, 22:53:44.413, 1541908424413
237, -2120.06, 14608.18, 187500.00, 187500.00, -187500.02, -187500.02, -187500.02, -187500.02, 0.000, 0.000, 0.000, 22:53:44.413, 1541908424413
238, -2318.30, 14537.26, 187500.00, 187500.00, -187500.02, -187500.02, -187500.02, -187500.02, 0.000, 0.000, 0.000, 22:53:44.413, 1541908424413
239, -2461.31, 14273.00, 187500.00, 187500.00, -187500.02, -187500.02, -187500.02, -187500.02, 0.000, 0.000, 0.000, 22:53:44.413, 1541908424413
240, -2324.04, 14208.00, 187500.00, 187500.00, -187500.02, -187500.02, -187500.02, -187500.02, 0.084, 0.810, 0.572, 22:53:44.413, 1541908424413
241, -2112.89, 14577.00, 187500.00, 187500.00, -187500.02, -187500.02, -187500.02, -187500.02, 0.000, 0.000, 0.000, 22:53:44.413, 1541908424413
242, -2269.95, 14585.47, 187500.00, 187500.00, -187500.02, -187500.02, -187500.02, -187500.02, 0.000, 0.000, 0.000, 22:53:44.413, 1541908424413
243, -2409.21, 14361.84, 187500.00, 187500.00, -187500.02, -187500.02, -187500.02, -187500.02, 0.000, 0.000, 0.000, 22:53:44.413, 1541908424413
244, -2352.54, 14203.04, 187500.00, 187500.00, -187500.02, -187500.02, -187500.02, -187500.02, 0.000, 0.000, 0.000, 22:53:44.413, 1541908424413
245, -2098.29, 14541.73, 187500.00, 187500.00, -187500.02, -187500.02, -187500.02, -187500.02, 0.000, 0.000, 0.000, 22:53:44.413, 1541908424413
246, -2211.97, 14625.01, 187500.00, 187500.00, -187500.02, -187500.02, -187500.02, -187500.02, 0.000, 0.000, 0.000, 22:53:44.413, 1541908424413
247, -2396.69, 14409.97, 187500.00, 187500.00, -187500.02, -187500.02, -187500.02, -187500.02, 0.000, 0.000, 0.000, 22:53:44.413, 1541908424413
248, -2374.90, 14215.28, 187500.00, 187500.00, -187500.02, -187500.02, -187500.02, -187500.02, 0.000, 0.000, 0.000, 22:53:44.414, 1541908424414
249, -2125.11, 14473.36, 187500.00, 187500.00, -187500.02, -187500.02, -187500.02, -187500.02, 0.000, 0.000, 0.000, 22:53:44.414, 1541908424414
250, -2195.32, 14639.61, 187500.00, 187500.00, -187500.02, -187500.02, -187500.02, -187500.02, 0.082, 0.808, 0.574, 22:53:44.414, 1541908424414
251, -2401.94, 14439.47, 187500.00, 187500.00, -187500.02, -187500.02, -187500.02, -187500.02, 0.000, 0.000, 0.000, 22:53:44.414, 1541908424414
252, -2444.14, 14190.18, 187500.00, 187500.00, -187500.02, -187500.02, -187500.02, -187500.02, 0.000, 0.000, 0.000, 22:53:44.414, 1541908424414
253, -2186.07, 14377.42, 187500.00, 187500.00, -187500.02, -187500.02, -187500.02, -187500.02, 0.000, 0.000, 0.000, 22:53:44.414, 1541908424414
254, -2181.69, 14615.78, 187500.00, 187500.00, -187500.02, -187500.02, -187500.02, -187500.02, 0.000, 0.000, 0.000, 22:53:44.414, 1541908424414
255, -2392.78, 14461.76, 187500.00, 187500.00, -187500.02, -187500.02, -187500.02, -187500.02, 0.000, 0.000, 0.000, 22:53:44.414, 1541908424414
0, -2461.84, 14221.16, 187500.00, 187500.00, -187500.02, -187500.02, -187500.02, -187500.02, 0.000, 0.000, 0.000, 22:53:44.414, 1541908424414
1, -2233.30, 14314.26, 187500.00, 187500.00, -187500.02, -187500.02, -187500.02, -187500.02, 0.000, 0.000, 0.000, 22:53:44.414, 1541908424414
2, -2148.25, 14621.57, 187500.00, 187500.00, -187500.02, -187500.02, -187500.02, -187500.02, 0.000, 0.000, 0.000, 22:53:44.414, 1541908424414
3, -2358.82, 14501.32, 187500.00, 187500.00, -187500.02, -187500.02, -187500.02, -187500.02, 0.000, 0.000, 0.000, 22:53:44.414, 1541908424414
4, -2464.17, 14247.40, 187500.00, 187500.00, -187500.02, -187500.02, -187500.02, -187500.02, 0.090, 0.810, 0.580, 22:53:44.414, 1541908424414
5, -2305.67, 14224.72, 187500.00, 187500.00, -187500.02, -187500.02, -187500.02, -187500.02, 0.000, 0.000, 0.000, 22:53:44.414, 1541908424414
6, -2141.43, 14581.67, 187500.00, 187500.00, -187500.02, -187500.02, -187500.02, -187500.02, 0.000, 0.000, 0.000, 22:53:44.414, 1541908424414
7, -2321.47, 14535.63, 187500.00, 187500.00, -187500.02, -187500.02, -187500.02, -187500.02, 0.000, 0.000, 0.000, 22:53:44.414, 1541908424414
8, -2452.12, 14297.32, 187500.00, 187500.00, -187500.02, -187500.02, -187500.02, -187500.02, 0.000, 0.000, 0.000, 22:53:44.414, 1541908424414
9, -2348.59, 14189.65, 187500.00, 187500.00, -187500.02, -187500.02, -187500.02, -187500.02, 0.000, 0.000, 0.000, 22:53:44.414, 1541908424414
10, -2136.18, 14541.22, 187500.00, 187500.00, -187500.02, -187500.02, -187500.02, -187500.02, 0.000, 0.000, 0.000, 22:53:44.414, 1541908424414
11, -2298.01, 14558.67, 187500.00, 187500.00, -187500.02, -187500.02, -187500.02, -187500.02, 0.000, 0.000, 0.000, 22:53:44.415, 1541908424415
12, -2461.33, 14325.66, 187500.00, 187500.00, -187500.02, -187500.02, -187500.02, -187500.02, 0.000, 0.000, 0.000, 22:53:44.415, 1541908424415
13, -2391.86, 14167.72, 187500.00, 187500.00, -187500.02, -187500.02, -187500.02, -187500.02, 0.000, 0.000, 0.000, 22:53:44.416, 1541908424416
14, -2102.05, 14525.57, 187500.00, 187500.00, -187500.02, -187500.02, -187500.02, -187500.02, 0.088, 0.806, 0.586, 22:53:44.417, 1541908424417
15, -2220.89, 14619.74, 187500.00, 187500.00, -187500.02, -187500.02, -187500.02, -187500.02, 0.000, 0.000, 0.000, 22:53:44.417, 1541908424417
16, -2418.57, 14393.61, 187500.00, 187500.00, -187500.02, -187500.02, -187500.02, -187500.02, 0.000, 0.000, 0.000, 22:53:44.417, 1541908424417
17, -2420.11, 14177.91, 187500.00, 187500.00, -187500.02, -187500.02, -187500.02, -187500.02, 0.000, 0.000, 0.000, 22:53:44.417, 1541908424417
18, -2153.79, 14439.96, 187500.00, 187500.00, -187500.02, -187500.02, -187500.02, -187500.02, 0.000, 0.000, 0.000, 22:53:44.417, 1541908424417
19, -2223.10, 14603.15, 187500.00, 187500.00, -187500.02, -187500.02, -187500.02, -187500.02, 0.000, 0.000, 0.000, 22:53:44.417, 1541908424417
20, -2426.37, 14414.13, 187500.00, 187500.00, -187500.02, -187500.02, -187500.02, -187500.02, 0.000, 0.000, 0.000, 22:53:44.417, 1541908424417
21, -2448.50, 14190.32, 187500.00, 187500.00, -187500.02, -187500.02, -187500.02, -187500.02, 0.000, 0.000, 0.000, 22:53:44.418, 1541908424418
22, -2182.18, 14373.60, 187500.00, 187500.00, -187500.02, -187500.02, -187500.02, -187500.02, 0.000, 0.000, 0.000, 22:53:44.418, 1541908424418
23, -2153.46, 14639.86, 187500.00, 187500.00, -187500.02, -187500.02, -187500.02, -187500.02, 0.000, 0.000, 0.000, 22:53:44.418, 1541908424418
24, -2371.39, 14477.94, 187500.00, 187500.00, -187500.02, -187500.02, -187500.02, -187500.02, 0.088, 0.800, 0.582, 22:53:44.418, 1541908424418
25, -2459.94, 14214.73, 187500.00, 187500.00, -187500.02, -187500.02, -187500.02, -187500.02, 0.000, 0.000, 0.000, 22:53:44.418, 1541908424418
26, -2246.13, 14284.46, 187500.00, 187500.00, -187500.02, -187500.02, -187500.02, -187500.02, 0.000, 0.000, 0.000, 22:53:44.418, 1541908424418
27, -2155.92, 14597.10, 187500.00, 187500.00, -187500.02, -187500.02, -187500.02, -187500.02, 0.000, 0.000, 0.000, 22:53:44.418, 1541908424418
28, -2352.95, 14503.73, 187500.00, 187500.00, -187500.02, -187500.02, -187500.02, -187500.02, 0.000, 0.000, 0.000, 22:53:44.418, 1541908424418
29, -2447.56, 14271.45, 187500.00, 187500.00, -187500.02, -187500.02, -187500.02, -187500.02, 0.000, 0.000, 0.000, 22:53:44.418, 1541908424418
30, -2288.86, 14243.22, 187500.00, 187500.00, -187500.02, -187500.02, -187500.02, -187500.02, 0.000, 0.000, 0.000, 22:53:44.418, 1541908424418
31, -2125.00, 14586.43, 187500.00, 187500.00, -187500.02, -187500.02, -187500.02, -187500.02, 0.000, 0.000, 0.000, 22:53:44.419, 1541908424419
32, -2330.42, 14520.79, 187500.00, 187500.00, -187500.02, -187500.02, -187500.02, -187500.02, 0.000, 0.000, 0.000, 22:53:44.419, 1541908424419
33, -2466.43, 14275.03, 187500.00, 187500.00, -187500.02, -187500.02, -187500.02, -187500.02, 0.094, 0.804, 0.582, 22:53:44.419, 1541908424419
34, -2338.53, 14182.18, 187500.00, 187500.00, -187500.02, -187500.02, -187500.02, -187500.02, 0.000, 0.000, 0.000, 22:53:44.419, 1541908424419
35, -2100.44, 14544.48, 187500.00, 187500.00, -187500.02, -187500.02, -187500.02, -187500.02, 0.000, 0.000, 0.000, 22:53:44.419, 1541908424419
36, -2250.80, 14569.72, 187500.00, 187500.00, -187500.02, -187500.02, -187500.02, -187500.02, 0.000, 0.000, 0.000, 22:53:44.419, 1541908424419
37, -2427.56, 14333.46, 187500.00, 187500.00, -187500.02, -187500.02, -187500.02, -187500.02, 0.000, 0.000, 0.000, 22:53:44.419, 1541908424419
38, -2382.72, 14160.43, 187500.00, 187500.00, -187500.02, -187500.02, -187500.02, -187500.02, 0.000, 0.000, 0.000, 22:53:44.420, 1541908424420
39, -2120.49, 14486.43, 187500.00, 187500.00, -187500.02, -187500.02, -187500.02, -187500.02, 0.000, 0.000, 0.000, 22:53:44.420, 1541908424420
40, -2220.18, 14596.49, 187500.00, 187500.00, -187500.02, -187500.02, -187500.02, -187500.02, 0.000, 0.000, 0.000, 22:53:44.420, 1541908424420
41, -2407.82, 14382.97, 187500.00, 187500.00, -187500.02, -187500.02, -187500.02, -187500.02, 0.000, 0.000, 0.000, 22:53:44.420, 1541908424420
42, -2412.56, 14166.63, 187500.00, 187500.00, -187500.02, -187500.02, -187500.02, -187500.02, 0.000, 0.000, 0.000, 22:53:44.420, 1541908424420
43, -2130.72, 14425.86, 187500.00, 187500.00, -187500.02, -187500.02, -187500.02, -187500.02, 0.090, 0.804, 0.590, 22:53:44.420, 1541908424420
44, -2166.04, 14620.45, 187500.00, 187500.00, -187500.02, -187500.02, -187500.02, -187500.02, 0.000, 0.000, 0.000, 22:53:44.420, 1541908424420
45, -2382.47, 14431.34, 187500.00, 187500.00, -187500.02, -187500.02, -187500.02, -187500.02, 0.000, 0.000, 0.000, 22:53:44.420, 1541908424420
46, -2433.88, 14187.19, 187500.00, 187500.00, -187500.02, -187500.02, -187500.02, -187500.02, 0.000, 0.000, 0.000, 22:53:44.420, 1541908424420
47, -2178.98, 14341.15, 187500.00, 187500.00, -187500.02, -187500.02, -187500.02, -187500.02, 0.000, 0.000, 0.000, 22:53:44.420, 1541908424420
48, -2150.66, 14600.58, 187500.00, 187500.00, -187500.02, -187500.02, -187500.02, -187500.02, 0.000, 0.000, 0.000, 22:53:44.421, 1541908424421
49, -2363.38, 14459.37, 187500.00, 187500.00, -187500.02, -187500.02, -187500.02, -187500.02, 0.000, 0.000, 0.000, 22:53:44.421, 1541908424421
50, -2424.27, 14229.81, 187500.00, 187500.00, -187500.02, -187500.02, -187500.02, -187500.02, 0.000, 0.000, 0.000, 22:53:44.421, 1541908424421
51, -2201.45, 14302.08, 187500.00, 187500.00, -187500.02, -187500.02, -187500.02, -187500.02, 0.000, 0.000, 0.000, 22:53:44.421, 1541908424421
52, -2095.90, 14623.38, 187500.00, 187500.00, -187500.02, -187500.02, -187500.02, -187500.02, 0.000, 0.000, 0.000, 22:53:44.421, 1541908424421
53, -2313.58, 14511.60, 187500.00, 187500.00, -187500.02, -187500.02, -187500.02, -187500.02, 0.084, 0.802, 0.588, 22:53:44.421, 1541908424421
0, 0.00, 0.00, 0.00, 0.00, 0.00, 0.00, 0.00, 0.00, 0.000, 0.000, 0.000, 22:53:44.422, 1541908424422
1, -1897.60, 14934.45, 0.00, 187500.00, -187500.02, -187500.02, -187500.02, -187500.02, 0.000, 0.000, 0.000, 22:53:44.641, 1541908424641
2, -2148.92, 14609.59, 0.00, 187500.00, -187500.02, -187500.02, -187500.02, -187500.02, 0.000, 0.000, 0.000, 22:53:44.642, 1541908424642
3, -2144.11, 14395.04, 0.00, 187500.00, -187500.02, -187500.02, -187500.02, -187500.02, 0.092, 0.800, 0.588, 22:53:44.642, 1541908424642
4, -1909.38, 14697.48, 0.00, 187500.00, -187500.02, -187500.02, -187500.02, -187500.02, 0.000, 0.000, 0.000, 22:53:44.642, 1541908424642
5, -2053.39, 14755.71, 0.00, 187500.00, -187500.02, -187500.02, -187500.02, -187500.02, 0.000, 0.000, 0.000, 22:53:44.643, 1541908424643
6, -2252.47, 14527.40, 0.00, 187500.00, -187500.02, -187500.02, -187500.02, -187500.02, 0.000, 0.000, 0.000, 22:53:44.643, 1541908424643
7, -2254.53, 14305.32, 0.00, 187500.00, -187500.02, -187500.02, -187500.02, -187500.02, 0.000, 0.000, 0.000, 22:53:44.643, 1541908424643
8, -1993.31, 14559.10, 0.00, 187500.00, -187500.02, -187500.02, -187500.02, -187500.02, 0.000, 0.000, 0.000, 22:53:44.643, 1541908424643
9, -2056.07, 14720.52, 0.00, 187500.00, -187500.02, -187500.02, -187500.02, -187500.02, 0.000, 0.000, 0.000, 22:53:44.643, 1541908424643
10, -2271.70, 14524.97, 0.00, 187500.00, -187500.02, -187500.02, -187500.02, -187500.02, 0.000, 0.000, 0.000, 22:53:44.643, 1541908424643
11, -2331.31, 14263.94, 0.00, 187500.00, -187500.02, -187500.02, -187500.02, -187500.02, 0.000, 0.000, 0.000, 22:53:44.643, 1541908424643
12, -2069.64, 14451.25, 0.00, 187500.00, -187500.02, -187500.02, -187500.02, -187500.02, 0.094, 0.798, 0.588, 22:53:44.644, 1541908424644
13, -2049.54, 14713.21, 0.00, 187500.00, -187500.02, -187500.02, -187500.02, -187500.02, 0.000, 0.000, 0.000, 22:53:44.644, 1541908424644
14, -2271.70, 14546.36, 0.00, 187500.00, -187500.02, -187500.02, -187500.02, -187500.02, 0.000, 0.000, 0.000, 22:53:44.644, 1541908424644
15, -2347.80, 14291.68, 0.00, 187500.00, -187500.02, -187500.02, -187500.02, -187500.02, 0.000, 0.000, 0.000, 22:53:44.644, 1541908424644
16, -2125.92, 14376.44, 0.00, 187500.00, -187500.02, -187500.02, -187500.02, -187500.02, 0.000, 0.000, 0.000, 22:53:44.644, 1541908424644
17, -2031.80, 14701.10, 0.00, 187500.00, -187500.02, -187500.02, -187500.02, -187500.02, 0.000, 0.000, 0.000, 22:53:44.644, 1541908424644
18, -2240.67, 14597.34, 0.00, 187500.00, -187500.02, -187500.02, -187500.02, -187500.02, 0.000, 0.000, 0.000, 22:53:44.645, 1541908424645
19, -2363.05, 14336.81, 0.00, 187500.00, -187500.02, -187500.02, -187500.02, -187500.02, 0.000, 0.000, 0.000, 22:53:44.645, 1541908424645
20, -2205.87, 14305.21, 0.00, 187500.00, -187500.02, -187500.02, -187500.02, -187500.02, 0.000, 0.000, 0.000, 22:53:44.645, 1541908424645
21, -2043.82, 14659.66, 0.00, 187500.00, -187500.02, -187500.02, -187500.02, -187500.02, 0.000, 0.000, 0.000, 22:53:44.645, 1541908424645
22, -2233.88, 14614.51, 0.00, 187500.00, -187500.02, -187500.02, -187500.02, -187500.02, 0.100, 0.804, 0.582, 22:53:44.645, 1541908424645
23, -2356.41, 14385.22, 0.00, 187500.00, -187500.02, -187500.02, -187500.02, -187500.02, 0.000, 0.000, 0.000, 22:53:44.645, 1541908424645
24, -2266.85, 14263.50, 0.00, 187500.00, -187500.02, -187500.02, -187500.02, -187500.02, 0.000, 0.000, 0.000, 22:53:44.645, 1541908424645
25, -2039.84, 14615.40, 0.00, 187500.00, -187500.02, -187500.02, -187500.02, -187500.02, 0.000, 0.000, 0.000, 22:53:44.645, 1541908424645
26, -2171.63, 14655.77, 0.00, 187500.00, -187500.02, -187500.02, -187500.02, -187500.02, 0.000, 0.000, 0.000, 22:53:44.645, 1541908424645
27, -2334.39, 14428.34, 0.00, 187500.00, -187500.02, -187500.02, -187500.02, -187500.02, 0.000, 0.000, 0.000, 22:53:44.645, 1541908424645
28, -2296.98, 14245.39, 0.00, 187500.00, -187500.02, -187500.02, -187500.02, -187500.02, 0.000, 0.000, 0.000, 22:53:44.645, 1541908424645
29, -2042.86, 14559.93, 0.00, 187500.00, -187500.02, -187500.02, -187500.02, -187500.02, 0.000, 0.000, 0.000, 22:53:44.645, 1541908424645
30, -2154.64, 14665.45, 0.00, 187500.00, -187500.02, -187500.02, -187500.02, -187500.02, 0.000, 0.000, 0.000, 22:53:44.645, 1541908424645
31, -2351.00, 14443.56, 0.00, 187500.00, -187500.02, -187500.02, -187500.02, -187500.02, 0.000, 0.000, 0.000, 22:53:44.645, 1541908424645
32, -2351.34, 14227.40, 0.00, 187500.00, -187500.02, -187500.02, -187500.02, -187500.02, 0.098, 0.810, 0.576, 22:53:44.645, 1541908424645
33, -2064.65, 14500.38, 0.00, 187500.00, -187500.02, -187500.02, -187500.02, -187500.02, 0.000, 0.000, 0.000, 22:53:44.646, 1541908424646
34, -2108.19, 14694.13, 0.00, 187500.00, -187500.02, -187500.02, -187500.02, -187500.02, 0.000, 0.000, 0.000, 22:53:44.646, 1541908424646
35, -2325.97, 14498.50, 0.00, 187500.00, -187500.02, -187500.02, -187500.02, -187500.02, 0.000, 0.000, 0.000, 22:53:44.646, 1541908424646
36, -2368.48, 14258.16, 0.00, 187500.00, -187500.02, -187500.02, -187500.02, -187500.02, 0.000, 0.000, 0.000, 22:53:44.646, 1541908424646
37, -2114.97, 14427.09, 0.00, 187500.00, -187500.02, -187500.02, -187500.02, -187500.02, 0.000, 0.000, 0.000, 22:53:44.646, 1541908424646
38, -2085.98, 14692.76, 0.00, 187500.00, -187500.02, -187500.02, -187500.02, -187500.02, 0.000, 0.000, 0.000, 22:53:44.646, 1541908424646
39, -2313.11, 14525.24, 0.00, 187500.00, -187500.02, -187500.02, -187500.02, -187500.02, 0.000, 0.000, 0.000, 22:53:44.646, 1541908424646
40, -2396.02, 14277.20, 0.00, 187500.00, -187500.02, -187500.02, -187500.02, -187500.02, 0.000, 0.000, 0.000, 22:53:44.646, 1541908424646
41, -2172.72, 14345.19, 0.00, 187500.00, -187500.02, -187500.02, -187500.02, -187500.02, 0.000, 0.000, 0.000, 22:53:44.646, 1541908424646
42, -2059.40, 14679.26, 0.00, 187500.00, -187500.02, -187500.02, -187500.02, -187500.02, 0.104, 0.814, 0.580, 22:53:44.646, 1541908424646
43, -2268.39, 14575.59, 0.00, 187500.00, -187500.02, -187500.02, -187500.02, -187500.02, 0.000, 0.000, 0.000, 22:53:44.646, 1541908424646
44, -2383.28, 14319.51, 0.00, 187500.00, -187500.02, -187500.02, -187500.02, -187500.02, 0.000, 0.000, 0.000, 22:53:44.646, 1541908424646
45, -2233.50, 14282.07, 0.00, 187500.00, -187500.02, -187500.02, -187500.02, -187500.02, 0.000, 0.000, 0.000, 22:53:44.646, 1541908424646
46, -2036.11, 14664.04, 0.00, 187500.00, -187500.02, -187500.02, -187500.02, -187500.02, 0.000, 0.000, 0.000, 22:53:44.646, 1541908424646
47, -2219.64, 14632.64, 0.00, 187500.00, -187500.02, -187500.02, -187500.02, -187500.02, 0.000, 0.000, 0.000, 22:53:44.646, 1541908424646
48, -2380.91, 14373.92, 0.00, 187500.00, -187500.02, -187500.02, -187500.02, -187500.02, 0.000, 0.000, 0.000, 22:53:44.646, 1541908424646
49, -2287.83, 14246.84, 0.00, 187500.00, -187500.02, -187500.02, -187500.02, -187500.02, 0.000, 0.000, 0.000, 22:53:44.646, 1541908424646
50, -2052.47, 14612.30, 0.00, 187500.00, -187500.02, -187500.02, -187500.02, -187500.02, 0.000, 0.000, 0.000, 22:53:44.646, 1541908424646
51, -2200.78, 14650.27, 0.00, 187500.00, -187500.02, -187500.02, -187500.02, -187500.02, 0.000, 0.000, 0.000, 22:53:44.647, 1541908424647
0, 0.00, 0.00, 0.00, 0.00, 0.00, 0.00, 0.00, 0.00, 0.000, 0.000, 0.000, 22:53:44.656, 1541908424656
1, -1761.59, 15063.85, 0.00, 0.00, -187500.02, -187500.02, -187500.02, -187500.02, 0.000, 0.000, 0.000, 22:53:44.872, 1541908424872
2, -2055.71, 14770.73, 0.00, 0.00, -187500.02, -187500.02, -187500.02, -187500.02, 0.000, 0.000, 0.000, 22:53:44.872, 1541908424872
3, -2141.83, 14484.89, 0.00, 0.00, -187500.02, -187500.02, -187500.02, -187500.02, 0.108, 0.796, 0.578, 22:53:44.873, 1541908424873
4, -1911.23, 14646.05, 0.00, 0.00, -187500.02, -187500.02, -187500.02, -187500.02, 0.000, 0.000, 0.000, 22:53:44.874, 1541908424874
5, -1936.26, 14869.88, 0.00, 0.00, -187500.02, -187500.02, -187500.02, -187500.02, 0.000, 0.000, 0.000, 22:53:44.875, 1541908424875
6, -2180.44, 14676.69, 0.00, 0.00, -187500.02, -187500.02, -187500.02, -187500.02, 0.000, 0.000, 0.000, 22:53:44.876, 1541908424876
7, -2279.36, 14400.20, 0.00, 0.00, -187500.02, -187500.02, -187500.02, -187500.02, 0.000, 0.000, 0.000, 22:53:44.876, 1541908424876
8, -2073.26, 14477.09, 0.00, 0.00, -187500.02, -187500.02, -187500.02, -187500.02, 0.000, 0.000, 0.000, 22:53:44.876, 1541908424876
9, -1981.30, 14793.30, 0.00, 0.00, -187500.02, -187500.02, -187500.02, -187500.02, 0.000, 0.000, 0.000, 22:53:44.876, 1541908424876
10, -2189.17, 14681.65, 0.00, 0.00, -187500.02, -187500.02, -187500.02, -187500.02, 0.000, 0.000, 0.000, 22:53:44.876, 1541908424876
11, -2310.77, 14418.24, 0.00, 0.00, -187500.02, -187500.02, -187500.02, -187500.02, 0.000, 0.000, 0.000, 22:53:44.876, 1541908424876
12, -2152.25, 14394.66, 0.00, 0.00, -187500.02, -187500.02, -187500.02, -187500.02, 0.000, 0.000, 0.000, 22:53:44.877, 1541908424877
13, -2006.90, 14736.64, 0.00, 0.00, -187500.02, -187500.02, -187500.02, -187500.02, 0.102, 0.796, 0.572, 22:53:44.877, 1541908424877
14, -2197.71, 14680.58, 0.00, 0.00, -187500.02, -187500.02, -187500.02, -187500.02, 0.000, 0.000, 0.000, 22:53:44.877, 1541908424877
15, -2335.00, 14428.83, 0.00, 0.00, -187500.02, -187500.02, -187500.02, -187500.02, 0.000, 0.000, 0.000, 22:53:44.877, 1541908424877
16, -2227.84, 14328.65, 0.00, 0.00, -187500.02, -187500.02, -187500.02, -187500.02, 0.000, 0.000, 0.000, 22:53:44.877, 1541908424877
17, -2006.45, 14693.95, 0.00, 0.00, -187500.02, -187500.02, -187500.02, -187500.02, 0.000, 0.000, 0.000, 22:53:44.878, 1541908424878
18, -2165.37, 14708.27, 0.00, 0.00, -187500.02, -187500.02, -187500.02, -187500.02, 0.000, 0.000, 0.000, 22:53:44.878, 1541908424878
19, -2337.23, 14465.36, 0.00, 0.00, -187500.02, -187500.02, -187500.02, -187500.02, 0.000, 0.000, 0.000, 22:53:44.878, 1541908424878
20, -2296.57, 14291.73, 0.00, 0.00, -187500.02, -187500.02, -187500.02, -187500.02, 0.000, 0.000, 0.000, 22:53:44.879, 1541908424879
21, -2012.98, 14645.22, 0.00, 0.00, -187500.02, -187500.02, -187500.02, -187500.02, 0.000, 0.000, 0.000, 22:53:44.879, 1541908424879
22, -2110.36, 14750.56, 0.00, 0.00, -187500.02, -187500.02, -187500.02, -187500.02, 0.000, 0.000, 0.000, 22:53:44.880, 1541908424880
23, -2320.25, 14511.62, 0.00, 0.00, -187500.02, -187500.02, -187500.02, -187500.02, 0.100, 0.812, 0.574, 22:53:44.880, 1541908424880
24, -2328.20, 14280.82, 0.00, 0.00, -187500.02, -187500.02, -187500.02, -187500.02, 0.000, 0.000, 0.000, 22:53:44.880, 1541908424880
25, -2056.43, 14545.67, 0.00, 0.00, -187500.02, -187500.02, -187500.02, -187500.02, 0.000, 0.000, 0.000, 22:53:44.880, 1541908424880
26, -2106.00, 14734.54, 0.00, 0.00, -187500.02, -187500.02, -187500.02, -187500.02, 0.000, 0.000, 0.000, 22:53:44.880, 1541908424880
27, -2310.90, 14547.16, 0.00, 0.00, -187500.02, -187500.02, -187500.02, -187500.02, 0.000, 0.000, 0.000, 22:53:44.880, 1541908424880
28, -2348.70, 14309.25, 0.00, 0.00, -187500.02, -187500.02, -187500.02, -187500.02, 0.000, 0.000, 0.000, 22:53:44.880, 1541908424880
29, -2080.77, 14492.71, 0.00, 0.00, -187500.02, -187500.02, -187500.02, -187500.02, 0.000, 0.000, 0.000, 22:53:44.880, 1541908424880
30, -2062.66, 14748.44, 0.00, 0.00, -187500.02, -187500.02, -187500.02, -187500.02, 0.000, 0.000, 0.000, 22:53:44.881, 1541908424881
31, -2276.93, 14588.89, 0.00, 0.00, -187500.02, -187500.02, -187500.02, -187500.02, 0.000, 0.000, 0.000, 22:53:44.881, 1541908424881
32, -2370.94, 14320.45, 0.00, 0.00, -187500.02, -187500.02, -187500.02, -187500.02, 0.000, 0.000, 0.000, 22:53:44.881, 1541908424881
33, -2167.99, 14383.15, 0.00, 0.00, -187500.02, -187500.02, -187500.02, -187500.02, 0.092, 0.812, 0.574, 22:53:44.881, 1541908424881
34, -2055.58, 14718.24, 0.00, 0.00, -187500.02, -187500.02, -187500.02, -187500.02, 0.000, 0.000, 0.000, 22:53:44.881, 1541908424881
35, -2254.22, 14624.17, 0.00, 0.00, -187500.02, -187500.02, -187500.02, -187500.02, 0.000, 0.000, 0.000, 22:53:44.881, 1541908424881
36, -2375.43, 14364.08, 0.00, 0.00, -187500.02, -187500.02, -187500.02, -187500.02, 0.000, 0.000, 0.000, 22:53:44.881, 1541908424881
37, -2217.34, 14331.00, 0.00, 0.00, -187500.02, -187500.02, -187500.02, -187500.02, 0.000, 0.000, 0.000, 22:53:44.881, 1541908424881
38, -2037.36, 14708.77, 0.00, 0.00, -187500.02, -187500.02, -187500.02, -187500.02, 0.000, 0.000, 0.000, 22:53:44.881, 1541908424881
39, -2216.11, 14674.86, 0.00, 0.00, -187500.02, -187500.02, -187500.02, -187500.02, 0.000, 0.000, 0.000, 22:53:44.881, 1541908424881
40, -2374.90, 14411.76, 0.00, 0.00, -187500.02, -187500.02, -187500.02, -187500.02, 0.000, 0.000, 0.000, 22:53:44.881, 1541908424881
41, -2266.58, 14304.09, 0.00, 0.00, -187500.02, -187500.02, -187500.02, -187500.02, 0.000, 0.000, 0.000, 22:53:44.881, 1541908424881
42, -2016.37, 14682.82, 0.00, 0.00, -187500.02, -187500.02, -187500.02, -187500.02, 0.088, 0.808, 0.580, 22:53:44.882, 1541908424882
43, -2172.95, 14710.64, 0.00, 0.00, -187500.02, -187500.02, -187500.02, -187500.02, 0.000, 0.000, 0.000, 22:53:44.882, 1541908424882
44, -2351.58, 14466.27, 0.00, 0.00, -187500.02, -187500.02, -187500.02, -187500.02, 0.000, 0.000, 0.000, 22:53:44.882, 1541908424882
45, -2300.40, 14294.48, 0.00, 0.00, -187500.02, -187500.02, -187500.02, -187500.02, 0.000, 0.000, 0.000, 22:53:44.882, 1541908424882
46, -2008.24, 14647.63, 0.00, 0.00, -187500.02, -187500.02, -187500.02, -187500.02, 0.000, 0.000, 0.000, 22:53:44.882, 1541908424882
47, -2115.23, 14759.26, 0.00, 0.00, -187500.02, -187500.02, -187500.02, -187500.02, 0.000, 0.000, 0.000, 22:53:44.882, 1541908424882
48, -2333.57, 14521.86, 0.00, 0.00, -187500.02, -187500.02, -187500.02, -187500.02, 0.000, 0.000, 0.000, 22:53:44.882, 1541908424882
49, -2337.75, 14301.94, 0.00, 0.00, -187500.02, -187500.02, -187500.02, -187500.02, 0.000, 0.000, 0.000, 22:53:44.882, 1541908424882
50, -2062.04, 14561.78, 0.00, 0.00, -187500.02, -187500.02, -187500.02, -187500.02, 0.000, 0.000, 0.000, 22:53:44.882, 1541908424882
51, -2099.63, 14758.59, 0.00, 0.00, -187500.02, -187500.02, -187500.02, -187500.02, 0.000, 0.000, 0.000, 22:53:44.882, 1541908424882
52, -2316.69, 14565.49, 0.00, 0.00, -187500.02, -187500.02, -187500.02, -187500.02, 0.090, 0.810, 0.584, 22:53:44.882, 1541908424882
0, 0.00, 0.00, 0.00, 0.00, 0.00, 0.00, 0.00, 0.00, 0.000, 0.000, 0.000, 22:53:44.887, 1541908424887
1, -2163.89, 14666.95, 0.00, 0.00, 0.00, -187500.02, -187500.02, -187500.02, 0.000, 0.000, 0.000, 22:53:45.113, 1541908425113
2, -2344.50, 14559.97, 0.00, 0.00, 0.00, -187500.02, -187500.02, -187500.02, 0.000, 0.000, 0.000, 22:53:45.114, 1541908425114
3, -2447.09, 14298.32, 0.00, 0.00, 0.00, -187500.02, -187500.02, -187500.02, 0.000, 0.000, 0.000, 22:53:45.114, 1541908425114
4, -2271.05, 14298.39, 0.00, 0.00, 0.00, -187500.02, -187500.02, -187500.02, 0.098, 0.802, 0.588, 22:53:45.114, 1541908425114
5, -2085.51, 14693.46, 0.00, 0.00, 0.00, -187500.02, -187500.02, -187500.02, 0.000, 0.000, 0.000, 22:53:45.114, 1541908425114
6, -2256.77, 14655.01, 0.00, 0.00, 0.00, -187500.02, -187500.02, -187500.02, 0.000, 0.000, 0.000, 22:53:45.115, 1541908425115
7, -2403.80, 14391.82, 0.00, 0.00, 0.00, -187500.02, -187500.02, -187500.02, 0.000, 0.000, 0.000, 22:53:45.115, 1541908425115
8, -2294.21, 14291.46, 0.00, 0.00, 0.00, -187500.02, -187500.02, -187500.02, 0.000, 0.000, 0.000, 22:53:45.115, 1541908425115
9, -2072.30, 14661.67, 0.00, 0.00, 0.00, -187500.02, -187500.02, -187500.02, 0.000, 0.000, 0.000, 22:53:45.115, 1541908425115
10, -2224.56, 14680.33, 0.00, 0.00, 0.00, -187500.02, -187500.02, -187500.02, 0.000, 0.000, 0.000, 22:53:45.115, 1541908425115
11, -2386.88, 14447.92, 0.00, 0.00, 0.00, -187500.02, -187500.02, -187500.02, 0.000, 0.000, 0.000, 22:53:45.115, 1541908425115
12, -2330.73, 14279.88, 0.00, 0.00, 0.00, -187500.02, -187500.02, -187500.02, 0.000, 0.000, 0.000, 22:53:45.115, 1541908425115
13, -2066.20, 14629.08, 0.00, 0.00, 0.00, -187500.02, -187500.02, -187500.02, 0.000, 0.000, 0.000, 22:53:45.115, 1541908425115
14, -2180.05, 14724.86, 0.00, 0.00, 0.00, -187500.02, -187500.02, -187500.02, 0.090, 0.796, 0.580, 22:53:45.115, 1541908425115
15, -2376.06, 14491.75, 0.00, 0.00, 0.00, -187500.02, -187500.02, -187500.02, 0.000, 0.000, 0.000, 22:53:45.115, 1541908425115
16, -2382.72, 14267.39, 0.00, 0.00, 0.00, -187500.02, -187500.02, -187500.02, 0.000, 0.000, 0.000, 22:53:45.115, 1541908425115
17, -2086.60, 14562.99, 0.00, 0.00, 0.00, -187500.02, -187500.02, -187500.02, 0.000, 0.000, 0.000, 22:53:45.115, 1541908425115
18, -2132.85, 14739.32, 0.00, 0.00, 0.00, -187500.02, -187500.02, -187500.02, 0.000, 0.000, 0.000, 22:53:45.115, 1541908425115
19, -2336.61, 14546.47, 0.00, 0.00, 0.00, -187500.02, -187500.02, -187500.02, 0.000, 0.000, 0.000, 22:53:45.115, 1541908425115
20, -2367.18, 14318.95, 0.00, 0.00, 0.00, -187500.02, -187500.02, -187500.02, 0.000, 0.000, 0.000, 22:53:45.115, 1541908425115
21, -2116.08, 14505.34, 0.00, 0.00, 0.00, -187500.02, -187500.02, -187500.02, 0.000, 0.000, 0.000, 22:53:45.115, 1541908425115
22, -2090.58, 14762.63, 0.00, 0.00, 0.00, -187500.02, -187500.02, -187500.02, 0.000, 0.000, 0.000, 22:53:45.115, 1541908425115
23, -2289.53, 14607.00, 0.00, 0.00, 0.00, -187500.02, -187500.02, -187500.02, 0.092, 0.802, 0.574, 22:53:45.115, 1541908425115
24, -2378.11, 14348.77, 0.00, 0.00, 0.00, -187500.02, -187500.02, -187500.02, 0.000, 0.000, 0.000, 22:53:45.116, 1541908425116
25, -2149.66, 14445.13, 0.00, 0.00, 0.00, -187500.02, -187500.02, -187500.02, 0.000, 0.000, 0.000, 22:53:45.116, 1541908425116
26, -2034.61, 14789.54, 0.00, 0.00, 0.00, -187500.02, -187500.02, -187500.02, 0.000, 0.000, 0.000, 22:53:45.116, 1541908425116
27, -2237.12, 14681.07, 0.00, 0.00, 0.00, -187500.02, -187500.02, -187500.02, 0.000, 0.000, 0.000, 22:53:45.116, 1541908425116
28, -2374.29, 14398.30, 0.00, 0.00, 0.00, -187500.02, -187500.02, -187500.02, 0.000, 0.000, 0.000, 22:53:45.116, 1541908425116
29, -2207.88, 14377.89, 0.00, 0.00, 0.00, -187500.02, -187500.02, -187500.02, 0.000, 0.000, 0.000, 22:53:45.116, 1541908425116
30, -2013.15, 14766.34, 0.00, 0.00, 0.00, -187500.02, -187500.02, -187500.02, 0.000, 0.000, 0.000, 22:53:45.116, 1541908425116
31, -2206.50, 14709.95, 0.00, 0.00, 0.00, -187500.02, -187500.02, -187500.02, 0.000, 0.000, 0.000, 22:53:45.116, 1541908425116
32, -2351.94, 14450.13, 0.00, 0.00, 0.00, -187500.02, -187500.02, -187500.02, 0.000, 0.000, 0.000, 22:53:45.116, 1541908425116
33, -2231.64, 14345.84, 0.00, 0.00, 0.00, -187500.02, -187500.02, -187500.02, 0.092, 0.810, 0.578, 22:53:45.116, 1541908425116
34, -1986.67, 14729.11, 0.00, 0.00, 0.00, -187500.02, -187500.02, -187500.02, 0.000, 0.000, 0.000, 22:53:45.116, 1541908425116
35, -2147.38, 14753.92, 0.00, 0.00, 0.00, -187500.02, -187500.02, -187500.02, 0.000, 0.000, 0.000, 22:53:45.116, 1541908425116
36, -2333.61, 14493.74, 0.00, 0.00, 0.00, -187500.02, -187500.02, -187500.02, 0.000, 0.000, 0.000, 22:53:45.116, 1541908425116
37, -2279.03, 14321.83, 0.00, 0.00, 0.00, -187500.02, -187500.02, -187500.02, 0.000, 0.000, 0.000, 22:53:45.116, 1541908425116
38, -2009.89, 14666.07, 0.00, 0.00, 0.00, -187500.02, -187500.02, -187500.02, 0.000, 0.000, 0.000, 22:53:45.116, 1541908425116
39, -2106.88, 14782.66, 0.00, 0.00, 0.00, -187500.02, -187500.02, -187500.02, 0.000, 0.000, 0.000, 22:53:45.116, 1541908425116
40, -2302.65, 14556.62, 0.00, 0.00, 0.00, -187500.02, -187500.02, -187500.02, 0.000, 0.000, 0.000, 22:53:45.117, 1541908425117
41, -2316.40, 14321.66, 0.00, 0.00, 0.00, -187500.02, -187500.02, -187500.02, 0.000, 0.000, 0.000, 22:53:45.117, 1541908425117
42, -2046.57, 14583.89, 0.00, 0.00, 0.00, -187500.02, -187500.02, -187500.02, 0.000, 0.000, 0.000, 22:53:45.117, 1541908425117
43, -2064.05, 14801.66, 0.00, 0.00, 0.00, -187500.02, -187500.02, -187500.02, 0.090, 0.802, 0.582, 22:53:45.117, 1541908425117
44, -2266.27, 14601.79, 0.00, 0.00, 0.00, -187500.02, -187500.02, -187500.02, 0.000, 0.000, 0.000, 22:53:45.117, 1541908425117
45, -2324.72, 14344.12, 0.00, 0.00, 0.00, -187500.02, -187500.02, -187500.02, 0.000, 0.000, 0.000, 22:53:45.118, 1541908425118
46, -2068.85, 14512.52, 0.00, 0.00, 0.00, -187500.02, -187500.02, -187500.02, 0.000, 0.000, 0.000, 22:53:45.118, 1541908425118
47, -2030.07, 14772.63, 0.00, 0.00, 0.00, -187500.02, -187500.02, -187500.02, 0.000, 0.000, 0.000, 22:53:45.118, 1541908425118
48, -2254.26, 14594.53, 0.00, 0.00, 0.00, -187500.02, -187500.02, -187500.02, 0.000, 0.000, 0.000, 22:53:45.118, 1541908425118
49, -2349.01, 14322.06, 0.00, 0.00, 0.00, -187500.02, -187500.02, -187500.02, 0.000, 0.000, 0.000, 22:53:45.118, 1541908425118
50, -2114.39, 14404.27, 0.00, 0.00, 0.00, -187500.02, -187500.02, -187500.02, 0.000, 0.000, 0.000, 22:53:45.118, 1541908425118
51, -1984.50, 14759.30, 0.00, 0.00, 0.00, -187500.02, -187500.02, -187500.02, 0.000, 0.000, 0.000, 22:53:45.118, 1541908425118
52, -2205.31, 14640.55, 0.00, 0.00, 0.00, -187500.02, -187500.02, -187500.02, 0.000, 0.000, 0.000, 22:53:45.118, 1541908425118
0, 0.00, 0.00, 0.00, 0.00, 0.00, 0.00, 0.00, 0.00, 0.000, 0.000, 0.000, 22:53:45.118, 1541908425118
1, -2254.64, 14596.56, 0.00, 0.00, 0.00, 0.00, -187500.02, -187500.02, 0.000, 0.000, 0.000, 22:53:45.128, 1541908425128
2, -2400.87, 14365.22, 0.00, 0.00, 0.00, 0.00, -187500.02, -187500.02, 0.000, 0.000, 0.000, 22:53:45.475, 1541908425475
3, -2322.93, 14216.22, 0.00, 0.00, 0.00, 0.00, -187500.02, -187500.02, 0.092, 0.798, 0.584, 22:53:45.475, 1541908425475
4, -2056.90, 14574.92, 0.00, 0.00, 0.00, 0.00, -187500.02, -187500.02, 0.000, 0.000, 0.000, 22:53:45.476, 1541908425476
5, -2162.98, 14671.62, 0.00, 0.00, 0.00, 0.00, -187500.02, -187500.02, 0.000, 0.000, 0.000, 22:53:45.476, 1541908425476
6, -2343.63, 14451.86, 0.00, 0.00, 0.00, 0.00, -187500.02, -187500.02, 0.000, 0.000, 0.000, 22:53:45.476, 1541908425476
7, -2332.00, 14239.45, 0.00, 0.00, 0.00, 0.00, -187500.02, -187500.02, 0.000, 0.000, 0.000, 22:53:45.476, 1541908425476
8, -2069.41, 14528.19, 0.00, 0.00, 0.00, 0.00, -187500.02, -187500.02, 0.000, 0.000, 0.000, 22:53:45.476, 1541908425476
9, -2115.26, 14720.32, 0.00, 0.00, 0.00, 0.00, -187500.02, -187500.02, 0.000, 0.000, 0.000, 22:53:45.476, 1541908425476
10, -2295.97, 14534.83, 0.00, 0.00, 0.00, 0.00, -187500.02, -187500.02, 0.000, 0.000, 0.000, 22:53:45.476, 1541908425476
11, -2345.97, 14276.93, 0.00, 0.00, 0.00, 0.00, -187500.02, -187500.02, 0.000, 0.000, 0.000, 22:53:45.476, 1541908425476
12, -2095.83, 14467.88, 0.00, 0.00, 0.00, 0.00, -187500.02, -187500.02, 0.000, 0.000, 0.000, 22:53:45.476, 1541908425476
13, -2067.09, 14731.23, 0.00, 0.00, 0.00, 0.00, -187500.02, -187500.02, 0.086, 0.798, 0.576, 22:53:45.476, 1541908425476
14, -2271.09, 14570.36, 0.00, 0.00, 0.00, 0.00, -187500.02, -187500.02, 0.000, 0.000, 0.000, 22:53:45.476, 1541908425476
15, -2351.11, 14310.75, 0.00, 0.00, 0.00, 0.00, -187500.02, -187500.02, 0.000, 0.000, 0.000, 22:53:45.476, 1541908425476
16, -2131.13, 14409.48, 0.00, 0.00, 0.00, 0.00, -187500.02, -187500.02, 0.000, 0.000, 0.000, 22:53:45.476, 1541908425476
17, -2038.55, 14740.84, 0.00, 0.00, 0.00, 0.00, -187500.02, -187500.02, 0.000, 0.000, 0.000, 22:53:45.476, 1541908425476
18, -2242.80, 14622.87, 0.00, 0.00, 0.00, 0.00, -187500.02, -187500.02, 0.000, 0.000, 0.000, 22:53:45.476, 1541908425476
19, -2358.62, 14358.85, 0.00, 0.00, 0.00, 0.00, -187500.02, -187500.02, 0.000, 0.000, 0.000, 22:53:45.477, 1541908425477
20, -2185.82, 14350.49, 0.00, 0.00, 0.00, 0.00, -187500.02, -187500.02, 0.000, 0.000, 0.000, 22:53:45.477, 1541908425477
21, -2001.06, 14733.96, 0.00, 0.00, 0.00, 0.00, -187500.02, -187500.02, 0.000, 0.000, 0.000, 22:53:45.477, 1541908425477
22, -2181.24, 14688.14, 0.00, 0.00, 0.00, 0.00, -187500.02, -187500.02, 0.000, 0.000, 0.000, 22:53:45.477, 1541908425477
23, -2336.56, 14423.02, 0.00, 0.00, 0.00, 0.00, -187500.02, -187500.02, 0.086, 0.800, 0.564, 22:53:45.477, 1541908425477
24, -2228.78, 14318.06, 0.00, 0.00, 0.00, 0.00, -187500.02, -187500.02, 0.000, 0.000, 0.000, 22:53:45.477, 1541908425477
25, -2000.95, 14700.09, 0.00, 0.00, 0.00, 0.00, -187500.02, -187500.02, 0.000, 0.000, 0.000, 22:53:45.477, 1541908425477
26, -2143.73, 14731.03, 0.00, 0.00, 0.00, 0.00, -187500.02, -187500.02, 0.000, 0.000, 0.000, 22:53:45.477, 1541908425477
27, -2299.79, 14497.74, 0.00, 0.00, 0.00, 0.00, -187500.02, -187500.02, 0.000, 0.000, 0.000, 22:53:45.477, 1541908425477
28, -2259.87, 14318.26, 0.00, 0.00, 0.00, 0.00, -187500.02, -187500.02, 0.000, 0.000, 0.000, 22:53:45.477, 1541908425477
29, -2007.45, 14653.00, 0.00, 0.00, 0.00, 0.00, -187500.02, -187500.02, 0.000, 0.000, 0.000, 22:53:45.477, 1541908425477
30, -2114.45, 14751.84, 0.00, 0.00, 0.00, 0.00, -187500.02, -187500.02, 0.000, 0.000, 0.000, 22:53:45.477, 1541908425477
31, -2296.51, 14533.98, 0.00, 0.00, 0.00, 0.00, -187500.02, -187500.02, 0.000, 0.000, 0.000, 22:53:45.477, 1541908425477
32, -2301.00, 14314.35, 0.00, 0.00, 0.00, 0.00, -187500.02, -187500.02, 0.000, 0.000, 0.000, 22:53:45.477, 1541908425477
33, -2034.14, 14589.63, 0.00, 0.00, 0.00, 0.00, -187500.02, -187500.02, 0.076, 0.804, 0.554, 22:53:45.477, 1541908425477
34, -2073.06, 14782.84, 0.00, 0.00, 0.00, 0.00, -187500.02, -187500.02, 0.000, 0.000, 0.000, 22:53:45.477, 1541908425477
35, -2264.39, 14597.10, 0.00, 0.00, 0.00, 0.00, -187500.02, -187500.02, 0.000, 0.000, 0.000, 22:53:45.477, 1541908425477
36, -2319.57, 14335.60, 0.00, 0.00, 0.00, 0.00, -187500.02, -187500.02, 0.000, 0.000, 0.000, 22:53:45.477, 1541908425477
37, -2070.78, 14513.28, 0.00, 0.00, 0.00, 0.00, -187500.02, -187500.02, 0.000, 0.000, 0.000, 22:53:45.478, 1541908425478
38, -2034.66, 14792.92, 0.00, 0.00, 0.00, 0.00, -187500.02, -187500.02, 0.000, 0.000, 0.000, 22:53:45.478, 1541908425478
39, -2235.20, 14654.61, 0.00, 0.00, 0.00, 0.00, -187500.02, -187500.02, 0.000, 0.000, 0.000, 22:53:45.478, 1541908425478
40, -2347.47, 14373.09, 0.00, 0.00, 0.00, 0.00, -187500.02, -187500.02, 0.000, 0.000, 0.000, 22:53:45.478, 1541908425478
41, -2139.64, 14444.10, 0.00, 0.00, 0.00, 0.00, -187500.02, -187500.02, 0.000, 0.000, 0.000, 22:53:45.478, 1541908425478
42, -2007.72, 14799.13, 0.00, 0.00, 0.00, 0.00, -187500.02, -187500.02, 0.000, 0.000, 0.000, 22:53:45.478, 1541908425478
43, -2202.12, 14699.98, 0.00, 0.00, 0.00, 0.00, -187500.02, -187500.02, 0.066, 0.818, 0.554, 22:53:45.478, 1541908425478
44, -2332.99, 14427.51, 0.00, 0.00, 0.00, 0.00, -187500.02, -187500.02, 0.000, 0.000, 0.000, 22:53:45.478, 1541908425478
45, -2181.60, 14396.33, 0.00, 0.00, 0.00, 0.00, -187500.02, -187500.02, 0.000, 0.000, 0.000, 22:53:45.478, 1541908425478
46, -1992.81, 14775.46, 0.00, 0.00, 0.00, 0.00, -187500.02, -187500.02, 0.000, 0.000, 0.000, 22:53:45.478, 1541908425478
47, -2163.51, 14742.18, 0.00, 0.00, 0.00, 0.00, -187500.02, -187500.02, 0.000, 0.000, 0.000, 22:53:45.478, 1541908425478
48, -2320.07, 14475.59, 0.00, 0.00, 0.00, 0.00, -187500.02, -187500.02, 0.000, 0.000, 0.000, 22:53:45.478, 1541908425478
49, -2213.09, 14366.38, 0.00, 0.00, 0.00, 0.00, -187500.02, -187500.02, 0.000, 0.000, 0.000, 22:53:45.478, 1541908425478
50, -1975.60, 14743.21, 0.00, 0.00, 0.00, 0.00, -187500.02, -187500.02, 0.000, 0.000, 0.000, 22:53:45.478, 1541908425478
51, -2123.57, 14779.17, 0.00, 0.00, 0.00, 0.00, -187500.02, -187500.02, 0.000, 0.000, 0.000, 22:53:45.478, 1541908425478
52, -2306.34, 14524.39, 0.00, 0.00, 0.00, 0.00, -187500.02, -187500.02, 0.072, 0.814, 0.550, 22:53:45.478, 1541908425478
53, -2268.95, 14326.75, 0.00, 0.00, 0.00, 0.00, -187500.02, -187500.02, 0.000, 0.000, 0.000, 22:53:45.478, 1541908425478
54, -1986.60, 14676.42, 0.00, 0.00, 0.00, 0.00, -187500.02, -187500.02, 0.000, 0.000, 0.000, 22:53:45.479, 1541908425479
55, -2069.46, 14820.64, 0.00, 0.00, 0.00, 0.00, -187500.02, -187500.02, 0.000, 0.000, 0.000, 22:53:45.479, 1541908425479
56, -2282.02, 14585.88, 0.00, 0.00, 0.00, 0.00, -187500.02, -187500.02, 0.000, 0.000, 0.000, 22:53:45.479, 1541908425479
57, -2290.09, 14358.11, 0.00, 0.00, 0.00, 0.00, -187500.02, -187500.02, 0.000, 0.000, 0.000, 22:53:45.479, 1541908425479
58, -2012.91, 14624.34, 0.00, 0.00, 0.00, 0.00, -187500.02, -187500.02, 0.000, 0.000, 0.000, 22:53:45.479, 1541908425479
59, -2054.26, 14826.43, 0.00, 0.00, 0.00, 0.00, -187500.02, -187500.02, 0.000, 0.000, 0.000, 22:53:45.479, 1541908425479
60, -2260.97, 14637.04, 0.00, 0.00, 0.00, 0.00, -187500.02, -187500.02, 0.000, 0.000, 0.000, 22:53:45.479, 1541908425479
61, -2303.53, 14393.81, 0.00, 0.00, 0.00, 0.00, -187500.02, -187500.02, 0.000, 0.000, 0.000, 22:53:45.479, 1541908425479
62, -2055.96, 14558.05, 0.00, 0.00, 0.00, 0.00, -187500.02, -187500.02, 0.074, 0.824, 0.560, 22:53:45.479, 1541908425479
63, -2011.72, 14843.55, 0.00, 0.00, 0.00, 0.00, -187500.02, -187500.02, 0.000, 0.000, 0.000, 22:53:45.479, 1541908425479
64, -2221.92, 14699.09, 0.00, 0.00, 0.00, 0.00, -187500.02, -187500.02, 0.000, 0.000, 0.000, 22:53:45.479, 1541908425479
65, -2319.60, 14430.80, 0.00, 0.00, 0.00, 0.00, -187500.02, -187500.02, 0.000, 0.000, 0.000, 22:53:45.479, 1541908425479
66, -2124.06, 14480.96, 0.00, 0.00, 0.00, 0.00, -187500.02, -187500.02, 0.000, 0.000, 0.000, 22:53:45.479, 1541908425479
67, -2002.09, 14829.24, 0.00, 0.00, 0.00, 0.00, -187500.02, -187500.02, 0.000, 0.000, 0.000, 22:53:45.479, 1541908425479
68, -2197.89, 14736.04, 0.00, 0.00, 0.00, 0.00, -187500.02, -187500.02, 0.000, 0.000, 0.000, 22:53:45.479, 1541908425479
69, -2326.24, 14469.69, 0.00, 0.00, 0.00, 0.00, -187500.02, -187500.02, 0.000, 0.000, 0.000, 22:53:45.480, 1541908425480
70, -2170.44, 14429.12, 0.00, 0.00, 0.00, 0.00, -187500.02, -187500.02, 0.000, 0.000, 0.000, 22:53:45.480, 1541908425480
71, -1982.91, 14802.35, 0.00, 0.00, 0.00, 0.00, -187500.02, -187500.02, 0.000, 0.000, 0.000, 22:53:45.480, 1541908425480
72, -2180.77, 14759.88, 0.00, 0.00, 0.00, 0.00, -187500.02, -187500.02, 0.084, 0.826, 0.562, 22:53:45.480, 1541908425480
73, -2320.96, 14511.18, 0.00, 0.00, 0.00, 0.00, -187500.02, -187500.02, 0.000, 0.000, 0.000, 22:53:45.480, 1541908425480
74, -2215.75, 14397.07, 0.00, 0.00, 0.00, 0.00, -187500.02, -187500.02, 0.000, 0.000, 0.000, 22:53:45.480, 1541908425480
75, -1981.42, 14760.44, 0.00, 0.00, 0.00, 0.00, -187500.02, -187500.02, 0.000, 0.000, 0.000, 22:53:45.480, 1541908425480
76, -2124.42, 14809.53, 0.00, 0.00, 0.00, 0.00, -187500.02, -187500.02, 0.000, 0.000, 0.000, 22:53:45.480, 1541908425480
77, -2303.12, 14569.38, 0.00, 0.00, 0.00, 0.00, -187500.02, -187500.02, 0.000, 0.000, 0.000, 22:53:45.480, 1541908425480
78, -2268.97, 14371.46, 0.00, 0.00, 0.00, 0.00, -187500.02, -187500.02, 0.000, 0.000, 0.000, 22:53:45.480, 1541908425480
79, -2014.43, 14687.40, 0.00, 0.00, 0.00, 0.00, -187500.02, -187500.02, 0.000, 0.000, 0.000, 22:53:45.480, 1541908425480
80, -2086.07, 14836.44, 0.00, 0.00, 0.00, 0.00, -187500.02, -187500.02, 0.000, 0.000, 0.000, 22:53:45.481, 1541908425481
81, -2278.36, 14621.33, 0.00, 0.00, 0.00, 0.00, -187500.02, -187500.02, 0.000, 0.000, 0.000, 22:53:45.481, 1541908425481
82, -2315.22, 14369.51, 0.00, 0.00, 0.00, 0.00, -187500.02, -187500.02, 0.092, 0.820, 0.566, 22:53:45.481, 1541908425481
83, -2058.46, 14602.44, 0.00, 0.00, 0.00, 0.00, -187500.02, -187500.02, 0.000, 0.000, 0.000, 22:53:45.481, 1541908425481
84, -2076.86, 14816.50, 0.00, 0.00, 0.00, 0.00, -187500.02, -187500.02, 0.000, 0.000, 0.000, 22:53:45.481, 1541908425481
0, 0.00, 0.00, 0.00, 0.00, 0.00, 0.00, 0.00, 0.00, 0.000, 0.000, 0.000, 22:53:45.490, 1541908425490
1, -2167.83, 14698.24, 0.00, 0.00, 0.00, 0.00, 0.00, -187500.02, 0.088, 0.814, 0.570, 22:53:45.968, 1541908425968
2, -2324.40, 14612.36, 0.00, 0.00, 0.00, 0.00, 0.00, -187500.02, 0.000, 0.000, 0.000, 22:53:45.969, 1541908425969
3, -2416.72, 14364.57, 0.00, 0.00, 0.00, 0.00, 0.00, -187500.02, 0.000, 0.000, 0.000, 22:53:45.969, 1541908425969
4, -2228.96, 14388.69, 0.00, 0.00, 0.00, 0.00, 0.00, -187500.02, 0.000, 0.000, 0.000, 22:53:45.969, 1541908425969
5, -2069.79, 14760.91, 0.00, 0.00, 0.00, 0.00, 0.00, -187500.02, 0.000, 0.000, 0.000, 22:53:45.969, 1541908425969
6, -2247.74, 14705.08, 0.00, 0.00, 0.00, 0.00, 0.00, -187500.02, 0.000, 0.000, 0.000, 22:53:45.969, 1541908425969
7, -2378.20, 14453.02, 0.00, 0.00, 0.00, 0.00, 0.00, -187500.02, 0.000, 0.000, 0.000, 22:53:45.969, 1541908425969
8, -2244.92, 14379.93, 0.00, 0.00, 0.00, 0.00, 0.00, -187500.02, 0.000, 0.000, 0.000, 22:53:45.969, 1541908425969
9, -2040.51, 14745.69, 0.00, 0.00, 0.00, 0.00, 0.00, -187500.02, 0.000, 0.000, 0.000, 22:53:45.969, 1541908425969
10, -2189.64, 14760.13, 0.00, 0.00, 0.00, 0.00, 0.00, -187500.02, 0.080, 0.818, 0.566, 22:53:45.969, 1541908425969
11, -2330.55, 14533.39, 0.00, 0.00, 0.00, 0.00, 0.00, -187500.02, 0.000, 0.000, 0.000, 22:53:45.970, 1541908425970
12, -2276.55, 14367.61, 0.00, 0.00, 0.00, 0.00, 0.00, -187500.02, 0.000, 0.000, 0.000, 22:53:45.970, 1541908425970
13, -2052.25, 14689.66, 0.00, 0.00, 0.00, 0.00, 0.00, -187500.02, 0.000, 0.000, 0.000, 22:53:45.970, 1541908425970
14, -2159.65, 14788.38, 0.00, 0.00, 0.00, 0.00, 0.00, -187500.02, 0.000, 0.000, 0.000, 22:53:45.970, 1541908425970
15, -2313.34, 14589.68, 0.00, 0.00, 0.00, 0.00, 0.00, -187500.02, 0.000, 0.000, 0.000, 22:53:45.970, 1541908425970
16, -2298.21, 14370.67, 0.00, 0.00, 0.00, 0.00, 0.00, -187500.02, 0.000, 0.000, 0.000, 22:53:45.970, 1541908425970
17, -2036.40, 14653.40, 0.00, 0.00, 0.00, 0.00, 0.00, -187500.02, 0.000, 0.000, 0.000, 22:53:45.970, 1541908425970
18, -2103.99, 14813.60, 0.00, 0.00, 0.00, 0.00, 0.00, -187500.02, 0.000, 0.000, 0.000, 22:53:45.970, 1541908425970
19, -2316.49, 14605.03, 0.00, 0.00, 0.00, 0.00, 0.00, -187500.02, 0.000, 0.000, 0.000, 22:53:45.970, 1541908425970
20, -2348.70, 14371.70, 0.00, 0.00, 0.00, 0.00, 0.00, -187500.02, 0.068, 0.816, 0.560, 22:53:45.970, 1541908425970
21, -2081.91, 14585.76, 0.00, 0.00, 0.00, 0.00, 0.00, -187500.02, 0.000, 0.000, 0.000, 22:53:45.970, 1541908425970
22, -2058.06, 14843.08, 0.00, 0.00, 0.00, 0.00, 0.00, -187500.02, 0.000, 0.000, 0.000, 22:53:45.970, 1541908425970
23, -2255.72, 14685.27, 0.00, 0.00, 0.00, 0.00, 0.00, -187500.02, 0.000, 0.000, 0.000, 22:53:45.970, 1541908425970
24, -2348.10, 14413.16, 0.00, 0.00, 0.00, 0.00, 0.00, -187500.02, 0.000, 0.000, 0.000, 22:53:45.970, 1541908425970
25, -2144.23, 14492.71, 0.00, 0.00, 0.00, 0.00, 0.00, -187500.02, 0.000, 0.000, 0.000, 22:53:45.970, 1541908425970
26, -2060.20, 14807.43, 0.00, 0.00, 0.00, 0.00, 0.00, -187500.02, 0.000, 0.000, 0.000, 22:53:45.970, 1541908425970
27, -2265.33, 14686.55, 0.00, 0.00, 0.00, 0.00, 0.00, -187500.02, 0.000, 0.000, 0.000, 22:53:45.970, 1541908425970
28, -2350.00, 14446.71, 0.00, 0.00, 0.00, 0.00, 0.00, -187500.02, 0.000, 0.000, 0.000, 22:53:45.971, 1541908425971
29, -2181.84, 14436.61, 0.00, 0.00, 0.00, 0.00, 0.00, -187500.02, 0.000, 0.000, 0.000, 22:53:45.971, 1541908425971
30, -2028.22, 14791.36, 0.00, 0.00, 0.00, 0.00, 0.00, -187500.02, 0.070, 0.824, 0.560, 22:53:45.971, 1541908425971
31, -2216.89, 14735.70, 0.00, 0.00, 0.00, 0.00, 0.00, -187500.02, 0.000, 0.000, 0.000, 22:53:45.971, 1541908425971
32, -2363.23, 14482.01, 0.00, 0.00, 0.00, 0.00, 0.00, -187500.02, 0.000, 0.000, 0.000, 22:53:45.971, 1541908425971
33, -2233.41, 14407.22, 0.00, 0.00, 0.00, 0.00, 0.00, -187500.02, 0.000, 0.000, 0.000, 22:53:45.971, 1541908425971
34, -2008.91, 14773.41, 0.00, 0.00, 0.00, 0.00, 0.00, -187500.02, 0.000, 0.000, 0.000, 22:53:45.971, 1541908425971
35, -2170.42, 14778.71, 0.00, 0.00, 0.00, 0.00, 0.00, -187500.02, 0.000, 0.000, 0.000, 22:53:45.971, 1541908425971
36, -2335.44, 14536.43, 0.00, 0.00, 0.00, 0.00, 0.00, -187500.02, 0.000, 0.000, 0.000, 22:53:45.971, 1541908425971
37, -2276.35, 14376.69, 0.00, 0.00, 0.00, 0.00, 0.00, -187500.02, 0.000, 0.000, 0.000, 22:53:45.971, 1541908425971
38, -2009.06, 14730.72, 0.00, 0.00, 0.00, 0.00, 0.00, -187500.02, 0.000, 0.000, 0.000, 22:53:45.971, 1541908425971
39, -2105.96, 14834.38, 0.00, 0.00, 0.00, 0.00, 0.00, -187500.02, 0.000, 0.000, 0.000, 22:53:45.971, 1541908425971
40, -2280.70, 14621.06, 0.00, 0.00, 0.00, 0.00, 0.00, -187500.02, 0.078, 0.818, 0.552, 22:53:45.971, 1541908425971
41, -2290.29, 14395.26, 0.00, 0.00, 0.00, 0.00, 0.00, -187500.02, 0.000, 0.000, 0.000, 22:53:45.971, 1541908425971
42, -2032.98, 14663.82, 0.00, 0.00, 0.00, 0.00, 0.00, -187500.02, 0.000, 0.000, 0.000, 22:53:45.971, 1541908425971
43, -2078.31, 14848.73, 0.00, 0.00, 0.00, 0.00, 0.00, -187500.02, 0.000, 0.000, 0.000, 22:53:45.971, 1541908425971
44, -2284.64, 14649.15, 0.00, 0.00, 0.00, 0.00, 0.00, -187500.02, 0.000, 0.000, 0.000, 22:53:45.971, 1541908425971
45, -2346.46, 14385.07, 0.00, 0.00, 0.00, 0.00, 0.00, -187500.02, 0.000, 0.000, 0.000, 22:53:45.972, 1541908425972
46, -2107.81, 14562.79, 0.00, 0.00, 0.00, 0.00, 0.00, -187500.02, 0.000, 0.000, 0.000, 22:53:45.972, 1541908425972
47, -2098.09, 14822.60, 0.00, 0.00, 0.00, 0.00, 0.00, -187500.02, 0.000, 0.000, 0.000, 22:53:45.972, 1541908425972
48, -2271.61, 14687.89, 0.00, 0.00, 0.00, 0.00, 0.00, -187500.02, 0.000, 0.000, 0.000, 22:53:45.972, 1541908425972
49, -2362.56, 14414.97, 0.00, 0.00, 0.00, 0.00, 0.00, -187500.02, 0.084, 0.822, 0.556, 22:53:45.972, 1541908425972
50, -2152.25, 14496.29, 0.00, 0.00, 0.00, 0.00, 0.00, -187500.02, 0.000, 0.000, 0.000, 22:53:45.972, 1541908425972
51, -2040.09, 14833.13, 0.00, 0.00, 0.00, 0.00, 0.00, -187500.02, 0.000, 0.000, 0.000, 22:53:45.972, 1541908425972
52, -2246.28, 14721.42, 0.00, 0.00, 0.00, 0.00, 0.00, -187500.02, 0.000, 0.000, 0.000, 22:53:45.972, 1541908425972
53, -2371.79, 14453.60, 0.00, 0.00, 0.00, 0.00, 0.00, -187500.02, 0.000, 0.000, 0.000, 22:53:45.972, 1541908425972
54, -2211.86, 14436.79, 0.00, 0.00, 0.00, 0.00, 0.00, -187500.02, 0.000, 0.000, 0.000, 22:53:45.972, 1541908425972
55, -2036.53, 14809.19, 0.00, 0.00, 0.00, 0.00, 0.00, -187500.02, 0.000, 0.000, 0.000, 22:53:45.972, 1541908425972
56, -2200.93, 14780.49, 0.00, 0.00, 0.00, 0.00, 0.00, -187500.02, 0.000, 0.000, 0.000, 22:53:45.972, 1541908425972
