%OpenBCI Raw EEG Data
%Number of channels = 8
%Sample Rate = 250.0 Hz
%First Column = SampleIndex
%Last Column = Timestamp 
%Other Columns = EEG data in microvolts followed by Accel Data (in G) interleaved with Aux Data
0, 34229.57, -15917.55, -187500.02, -187500.02, -187500.02, -187500.02, -187500.02, -187500.02, 0.056, 0.408, 0.280, 20:30:07.542, 1541899807542
1, 34363.08, -15334.77, -187500.02, -187500.02, -187500.02, -187500.02, -187500.02, -187500.02, 0.000, 0.000, 0.000, 20:30:08.024, 1541899808024
2, 33644.16, -17092.85, -187500.02, -187500.02, -187500.02, -187500.02, -187500.02, -187500.02, 0.000, 0.000, 0.000, 20:30:08.024, 1541899808024
3, 33742.13, -17093.12, -187500.02, -187500.02, -187500.02, -187500.02, -187500.02, -187500.02, 0.000, 0.000, 0.000, 20:30:08.024, 1541899808024
4, 34125.05, -16177.21, -187500.02, -187500.02, -187500.02, -187500.02, -187500.02, -187500.02, 0.000, 0.000, 0.000, 20:30:08.024, 1541899808024
5, 34448.13, -15203.86, -187500.02, -187500.02, -187500.02, -187500.02, -187500.02, -187500.02, 0.000, 0.000, 0.000, 20:30:08.024, 1541899808024
6, 33693.06, -16874.54, -187500.02, -187500.02, -187500.02, -187500.02, -187500.02, -187500.02, 0.000, 0.000, 0.000, 20:30:08.024, 1541899808024
7, 33688.50, -17205.48, -187500.02, -187500.02, -187500.02, -187500.02, -187500.02, -187500.02, 0.078, 0.618, 0.416, 20:30:08.025, 1541899808025
8, 34027.38, -16406.89, -187500.02, -187500.02, -187500.02, -187500.02, -187500.02, -187500.02, 0.000, 0.000, 0.000, 20:30:08.025, 1541899808025
9, 34491.94, -15169.55, -187500.02, -187500.02, -187500.02, -187500.02, -187500.02, -187500.02, 0.000, 0.000, 0.000, 20:30:08.025, 1541899808025
10, 33817.14, -16536.47, -187500.02, -187500.02, -187500.02, -187500.02, -187500.02, -187500.02, 0.000, 0.000, 0.000, 20:30:08.025, 1541899808025
11, 33626.68, -17302.84, -187500.02, -187500.02, -187500.02, -187500.02, -187500.02, -187500.02, 0.000, 0.000, 0.000, 20:30:08.025, 1541899808025
12, 33939.80, -16589.93, -187500.02, -187500.02, -187500.02, -187500.02, -187500.02, -187500.02, 0.000, 0.000, 0.000, 20:30:08.025, 1541899808025
13, 34457.70, -15280.68, -187500.02, -187500.02, -187500.02, -187500.02, -187500.02, -187500.02, 0.000, 0.000, 0.000, 20:30:08.025, 1541899808025
14, 33992.93, -16146.32, -187500.02, -187500.02, -187500.02, -187500.02, -187500.02, -187500.02, 0.000, 0.000, 0.000, 20:30:08.025, 1541899808025
15, 33593.78, -17362.23, -187500.02, -187500.02, -187500.02, -187500.02, -187500.02, -187500.02, 0.000, 0.000, 0.000, 20:30:08.025, 1541899808025
16, 33866.45, -16759.16, -187500.02, -187500.02, -187500.02, -187500.02, -187500.02, -187500.02, 0.084, 0.722, 0.484, 20:30:08.025, 1541899808025
17, 34398.93, -15482.74, -187500.02, -187500.02, -187500.02, -187500.02, -187500.02, -187500.02, 0.000, 0.000, 0.000, 20:30:08.025, 1541899808025
18, 34135.47, -15806.84, -187500.02, -187500.02, -187500.02, -187500.02, -187500.02, -187500.02, 0.000, 0.000, 0.000, 20:30:08.025, 1541899808025
19, 33574.29, -17350.23, -187500.02, -187500.02, -187500.02, -187500.02, -187500.02, -187500.02, 0.000, 0.000, 0.000, 20:30:08.025, 1541899808025
20, 33805.07, -16903.93, -187500.02, -187500.02, -187500.02, -187500.02, -187500.02, -187500.02, 0.000, 0.000, 0.000, 20:30:08.025, 1541899808025
21, 34318.91, -15720.12, -187500.02, -187500.02, -187500.02, -187500.02, -187500.02, -187500.02, 0.000, 0.000, 0.000, 20:30:08.026, 1541899808026
22, 34290.55, -15489.85, -187500.02, -187500.02, -187500.02, -187500.02, -187500.02, -187500.02, 0.000, 0.000, 0.000, 20:30:08.026, 1541899808026
23, 33578.76, -17267.59, -187500.02, -187500.02, -187500.02, -187500.02, -187500.02, -187500.02, 0.000, 0.000, 0.000, 20:30:08.026, 1541899808026
24, 33767.25, -17004.80, -187500.02, -187500.02, -187500.02, -187500.02, -187500.02, -187500.02, 0.000, 0.000, 0.000, 20:30:08.026, 1541899808026
25, 34185.38, -15991.02, -187500.02, -187500.02, -187500.02, -187500.02, -187500.02, -187500.02, 0.000, 0.000, 0.000, 20:30:08.026, 1541899808026
26, 34403.27, -15266.80, -187500.02, -187500.02, -187500.02, -187500.02, -187500.02, -187500.02, 0.090, 0.774, 0.522, 20:30:08.026, 1541899808026
27, 33632.67, -17076.15, -187500.02, -187500.02, -187500.02, -187500.02, -187500.02, -187500.02, 0.000, 0.000, 0.000, 20:30:08.026, 1541899808026
28, 33716.15, -17124.52, -187500.02, -187500.02, -187500.02, -187500.02, -187500.02, -187500.02, 0.000, 0.000, 0.000, 20:30:08.026, 1541899808026
29, 34116.45, -16207.23, -187500.02, -187500.02, -187500.02, -187500.02, -187500.02, -187500.02, 0.000, 0.000, 0.000, 20:30:08.026, 1541899808026
30, 34463.64, -15179.83, -187500.02, -187500.02, -187500.02, -187500.02, -187500.02, -187500.02, 0.000, 0.000, 0.000, 20:30:08.027, 1541899808027
31, 33739.04, -16785.87, -187500.02, -187500.02, -187500.02, -187500.02, -187500.02, -187500.02, 0.000, 0.000, 0.000, 20:30:08.028, 1541899808028
32, 33676.32, -17226.33, -187500.02, -187500.02, -187500.02, -187500.02, -187500.02, -187500.02, 0.000, 0.000, 0.000, 20:30:08.028, 1541899808028
33, 34028.94, -16414.21, -187500.02, -187500.02, -187500.02, -187500.02, -187500.02, -187500.02, 0.000, 0.000, 0.000, 20:30:08.028, 1541899808028
34, 34490.06, -15176.48, -187500.02, -187500.02, -187500.02, -187500.02, -187500.02, -187500.02, 0.000, 0.000, 0.000, 20:30:08.028, 1541899808028
35, 33849.97, -16461.81, -187500.02, -187500.02, -187500.02, -187500.02, -187500.02, -187500.02, 0.000, 0.000, 0.000, 20:30:08.028, 1541899808028
36, 33621.54, -17315.11, -187500.02, -187500.02, -187500.02, -187500.02, -187500.02, -187500.02, 0.092, 0.798, 0.544, 20:30:08.028, 1541899808028
37, 33924.71, -16617.02, -187500.02, -187500.02, -187500.02, -187500.02, -187500.02, -187500.02, 0.000, 0.000, 0.000, 20:30:08.028, 1541899808028
38, 34436.62, -15319.42, -187500.02, -187500.02, -187500.02, -187500.02, -187500.02, -187500.02, 0.000, 0.000, 0.000, 20:30:08.029, 1541899808029
39, 33970.43, -16118.71, -187500.02, -187500.02, -187500.02, -187500.02, -187500.02, -187500.02, 0.000, 0.000, 0.000, 20:30:08.029, 1541899808029
40, 33567.71, -17371.24, -187500.02, -187500.02, -187500.02, -187500.02, -187500.02, -187500.02, 0.000, 0.000, 0.000, 20:30:08.029, 1541899808029
41, 33861.19, -16769.96, -187500.02, -187500.02, -187500.02, -187500.02, -187500.02, -187500.02, 0.000, 0.000, 0.000, 20:30:08.029, 1541899808029
42, 34366.34, -15539.78, -187500.02, -187500.02, -187500.02, -187500.02, -187500.02, -187500.02, 0.000, 0.000, 0.000, 20:30:08.029, 1541899808029
43, 34145.55, -15731.76, -187500.02, -187500.02, -187500.02, -187500.02, -187500.02, -187500.02, 0.000, 0.000, 0.000, 20:30:08.029, 1541899808029
44, 33534.52, -17356.64, -187500.02, -187500.02, -187500.02, -187500.02, -187500.02, -187500.02, 0.000, 0.000, 0.000, 20:30:08.029, 1541899808029
45, 33813.50, -16900.91, -187500.02, -187500.02, -187500.02, -187500.02, -187500.02, -187500.02, 0.000, 0.000, 0.000, 20:30:08.030, 1541899808030
46, 34285.77, -15773.56, -187500.02, -187500.02, -187500.02, -187500.02, -187500.02, -187500.02, 0.100, 0.810, 0.556, 20:30:08.030, 1541899808030
47, 34270.57, -15473.67, -187500.02, -187500.02, -187500.02, -187500.02, -187500.02, -187500.02, 0.000, 0.000, 0.000, 20:30:08.030, 1541899808030
48, 33575.25, -17234.20, -187500.02, -187500.02, -187500.02, -187500.02, -187500.02, -187500.02, 0.000, 0.000, 0.000, 20:30:08.030, 1541899808030
49, 33754.46, -17030.78, -187500.02, -187500.02, -187500.02, -187500.02, -187500.02, -187500.02, 0.000, 0.000, 0.000, 20:30:08.030, 1541899808030
50, 34173.09, -16046.00, -187500.02, -187500.02, -187500.02, -187500.02, -187500.02, -187500.02, 0.000, 0.000, 0.000, 20:30:08.030, 1541899808030
51, 34403.20, -15264.70, -187500.02, -187500.02, -187500.02, -187500.02, -187500.02, -187500.02, 0.000, 0.000, 0.000, 20:30:08.030, 1541899808030
52, 33642.53, -17035.81, -187500.02, -187500.02, -187500.02, -187500.02, -187500.02, -187500.02, 0.000, 0.000, 0.000, 20:30:08.030, 1541899808030
53, 33697.09, -17148.35, -187500.02, -187500.02, -187500.02, -187500.02, -187500.02, -187500.02, 0.000, 0.000, 0.000, 20:30:08.040, 1541899808040
54, 34039.70, -16304.12, -187500.02, -187500.02, -187500.02, -187500.02, -187500.02, -187500.02, 0.000, 0.000, 0.000, 20:30:08.040, 1541899808040
55, 34428.28, -15219.39, -187500.02, -187500.02, -187500.02, -187500.02, -187500.02, -187500.02, 0.000, 0.000, 0.000, 20:30:08.040, 1541899808040
56, 33724.40, -16758.20, -187500.02, -187500.02, -187500.02, -187500.02, -187500.02, -187500.02, 0.088, 0.810, 0.554, 20:30:08.041, 1541899808041
57, 33633.16, -17263.82, -187500.02, -187500.02, -187500.02, -187500.02, -187500.02, -187500.02, 0.000, 0.000, 0.000, 20:30:08.041, 1541899808041
58, 33975.39, -16491.03, -187500.02, -187500.02, -187500.02, -187500.02, -187500.02, -187500.02, 0.000, 0.000, 0.000, 20:30:08.041, 1541899808041
59, 34450.32, -15258.33, -187500.02, -187500.02, -187500.02, -187500.02, -187500.02, -187500.02, 0.000, 0.000, 0.000, 20:30:08.041, 1541899808041
60, 33857.50, -16423.95, -187500.02, -187500.02, -187500.02, -187500.02, -187500.02, -187500.02, 0.000, 0.000, 0.000, 20:30:08.041, 1541899808041
61, 33584.75, -17362.59, -187500.02, -187500.02, -187500.02, -187500.02, -187500.02, -187500.02, 0.000, 0.000, 0.000, 20:30:08.041, 1541899808041
62, 33880.04, -16687.74, -187500.02, -187500.02, -187500.02, -187500.02, -187500.02, -187500.02, 0.000, 0.000, 0.000, 20:30:08.041, 1541899808041
63, 34413.55, -15379.39, -187500.02, -187500.02, -187500.02, -187500.02, -187500.02, -187500.02, 0.000, 0.000, 0.000, 20:30:08.041, 1541899808041
64, 33985.49, -16072.22, -187500.02, -187500.02, -187500.02, -187500.02, -187500.02, -187500.02, 0.000, 0.000, 0.000, 20:30:08.042, 1541899808042
65, 33562.51, -17381.41, -187500.02, -187500.02, -187500.02, -187500.02, -187500.02, -187500.02, 0.092, 0.816, 0.558, 20:30:08.042, 1541899808042
66, 33826.93, -16824.76, -187500.02, -187500.02, -187500.02, -187500.02, -187500.02, -187500.02, 0.000, 0.000, 0.000, 20:30:08.042, 1541899808042
67, 34323.07, -15607.42, -187500.02, -187500.02, -187500.02, -187500.02, -187500.02, -187500.02, 0.000, 0.000, 0.000, 20:30:08.042, 1541899808042
68, 34143.65, -15722.64, -187500.02, -187500.02, -187500.02, -187500.02, -187500.02, -187500.02, 0.000, 0.000, 0.000, 20:30:08.043, 1541899808043
69, 33518.96, -17368.36, -187500.02, -187500.02, -187500.02, -187500.02, -187500.02, -187500.02, 0.000, 0.000, 0.000, 20:30:08.043, 1541899808043
70, 33759.54, -16959.21, -187500.02, -187500.02, -187500.02, -187500.02, -187500.02, -187500.02, 0.000, 0.000, 0.000, 20:30:08.045, 1541899808045
71, 34244.46, -15853.40, -187500.02, -187500.02, -187500.02, -187500.02, -187500.02, -187500.02, 0.000, 0.000, 0.000, 20:30:08.046, 1541899808046
72, 34293.61, -15431.76, -187500.02, -187500.02, -187500.02, -187500.02, -187500.02, -187500.02, 0.000, 0.000, 0.000, 20:30:08.046, 1541899808046
73, 33530.39, -17249.44, -187500.02, -187500.02, -187500.02, -187500.02, -187500.02, -187500.02, 0.000, 0.000, 0.000, 20:30:08.046, 1541899808046
74, 33687.18, -17093.21, -187500.02, -187500.02, -187500.02, -187500.02, -187500.02, -187500.02, 0.000, 0.000, 0.000, 20:30:08.046, 1541899808046
75, 34110.59, -16129.98, -187500.02, -187500.02, -187500.02, -187500.02, -187500.02, -187500.02, 0.094, 0.820, 0.562, 20:30:08.057, 1541899808057
76, 34401.34, -15260.45, -187500.02, -187500.02, -187500.02, -187500.02, -187500.02, -187500.02, 0.000, 0.000, 0.000, 20:30:08.057, 1541899808057
77, 33643.91, -17001.00, -187500.02, -187500.02, -187500.02, -187500.02, -187500.02, -187500.02, 0.000, 0.000, 0.000, 20:30:08.058, 1541899808058
78, 33648.11, -17214.44, -187500.02, -187500.02, -187500.02, -187500.02, -187500.02, -187500.02, 0.000, 0.000, 0.000, 20:30:08.058, 1541899808058
79, 34008.67, -16367.13, -187500.02, -187500.02, -187500.02, -187500.02, -187500.02, -187500.02, 0.000, 0.000, 0.000, 20:30:08.058, 1541899808058
80, 34426.96, -15223.73, -187500.02, -187500.02, -187500.02, -187500.02, -187500.02, -187500.02, 0.000, 0.000, 0.000, 20:30:08.058, 1541899808058
81, 33734.05, -16703.53, -187500.02, -187500.02, -187500.02, -187500.02, -187500.02, -187500.02, 0.000, 0.000, 0.000, 20:30:08.059, 1541899808059
82, 33586.47, -17333.33, -187500.02, -187500.02, -187500.02, -187500.02, -187500.02, -187500.02, 0.000, 0.000, 0.000, 20:30:08.059, 1541899808059
83, 33942.08, -16557.19, -187500.02, -187500.02, -187500.02, -187500.02, -187500.02, -187500.02, 0.000, 0.000, 0.000, 20:30:08.059, 1541899808059
84, 34421.48, -15287.07, -187500.02, -187500.02, -187500.02, -187500.02, -187500.02, -187500.02, 0.000, 0.000, 0.000, 20:30:08.059, 1541899808059
85, 33838.15, -16379.60, -187500.02, -187500.02, -187500.02, -187500.02, -187500.02, -187500.02, 0.098, 0.816, 0.558, 20:30:08.059, 1541899808059
86, 33543.75, -17397.66, -187500.02, -187500.02, -187500.02, -187500.02, -187500.02, -187500.02, 0.000, 0.000, 0.000, 20:30:08.059, 1541899808059
87, 33873.75, -16708.08, -187500.02, -187500.02, -187500.02, -187500.02, -187500.02, -187500.02, 0.000, 0.000, 0.000, 20:30:08.060, 1541899808060
88, 34370.07, -15449.48, -187500.02, -187500.02, -187500.02, -187500.02, -187500.02, -187500.02, 0.000, 0.000, 0.000, 20:30:08.060, 1541899808060
89, 33999.44, -16010.06, -187500.02, -187500.02, -187500.02, -187500.02, -187500.02, -187500.02, 0.000, 0.000, 0.000, 20:30:08.060, 1541899808060
90, 33504.75, -17425.17, -187500.02, -187500.02, -187500.02, -187500.02, -187500.02, -187500.02, 0.000, 0.000, 0.000, 20:30:08.060, 1541899808060
91, 33771.18, -16895.26, -187500.02, -187500.02, -187500.02, -187500.02, -187500.02, -187500.02, 0.000, 0.000, 0.000, 20:30:08.060, 1541899808060
92, 34290.59, -15674.25, -187500.02, -187500.02, -187500.02, -187500.02, -187500.02, -187500.02, 0.000, 0.000, 0.000, 20:30:08.060, 1541899808060
93, 34189.54, -15637.44, -187500.02, -187500.02, -187500.02, -187500.02, -187500.02, -187500.02, 0.000, 0.000, 0.000, 20:30:08.060, 1541899808060
94, 33533.52, -17359.53, -187500.02, -187500.02, -187500.02, -187500.02, -187500.02, -187500.02, 0.000, 0.000, 0.000, 20:30:08.060, 1541899808060
95, 33747.96, -17007.15, -187500.02, -187500.02, -187500.02, -187500.02, -187500.02, -187500.02, 0.094, 0.806, 0.558, 20:30:08.060, 1541899808060
96, 34178.21, -15948.51, -187500.02, -187500.02, -187500.02, -187500.02, -187500.02, -187500.02, 0.000, 0.000, 0.000, 20:30:08.060, 1541899808060
97, 34276.29, -15432.47, -187500.02, -187500.02, -187500.02, -187500.02, -187500.02, -187500.02, 0.000, 0.000, 0.000, 20:30:08.061, 1541899808061
98, 33564.96, -17203.60, -187500.02, -187500.02, -187500.02, -187500.02, -187500.02, -187500.02, 0.000, 0.000, 0.000, 20:30:08.061, 1541899808061
99, 33680.86, -17127.45, -187500.02, -187500.02, -187500.02, -187500.02, -187500.02, -187500.02, 0.000, 0.000, 0.000, 20:30:08.061, 1541899808061
100, 34064.64, -16214.78, -187500.02, -187500.02, -187500.02, -187500.02, -187500.02, -187500.02, 0.000, 0.000, 0.000, 20:30:08.061, 1541899808061
101, 34365.34, -15277.06, -187500.02, -187500.02, -187500.02, -187500.02, -187500.02, -187500.02, 0.000, 0.000, 0.000, 20:30:08.061, 1541899808061
102, 33606.05, -16984.22, -187500.02, -187500.02, -187500.02, -187500.02, -187500.02, -187500.02, 0.000, 0.000, 0.000, 20:30:08.061, 1541899808061
103, 33617.71, -17253.60, -187500.02, -187500.02, -187500.02, -187500.02, -187500.02, -187500.02, 0.000, 0.000, 0.000, 20:30:08.061, 1541899808061
104, 33967.97, -16428.58, -187500.02, -187500.02, -187500.02, -187500.02, -187500.02, -187500.02, 0.000, 0.000, 0.000, 20:30:08.061, 1541899808061
105, 34403.94, -15255.74, -187500.02, -187500.02, -187500.02, -187500.02, -187500.02, -187500.02, 0.090, 0.810, 0.564, 20:30:08.061, 1541899808061
106, 33742.04, -16659.76, -187500.02, -187500.02, -187500.02, -187500.02, -187500.02, -187500.02, 0.000, 0.000, 0.000, 20:30:08.061, 1541899808061
107, 33553.39, -17377.90, -187500.02, -187500.02, -187500.02, -187500.02, -187500.02, -187500.02, 0.000, 0.000, 0.000, 20:30:08.062, 1541899808062
108, 33894.52, -16622.84, -187500.02, -187500.02, -187500.02, -187500.02, -187500.02, -187500.02, 0.000, 0.000, 0.000, 20:30:08.062, 1541899808062
109, 34407.40, -15326.10, -187500.02, -187500.02, -187500.02, -187500.02, -187500.02, -187500.02, 0.000, 0.000, 0.000, 20:30:08.062, 1541899808062
110, 33882.45, -16288.12, -187500.02, -187500.02, -187500.02, -187500.02, -187500.02, -187500.02, 0.000, 0.000, 0.000, 20:30:08.062, 1541899808062
111, 33522.32, -17410.24, -187500.02, -187500.02, -187500.02, -187500.02, -187500.02, -187500.02, 0.000, 0.000, 0.000, 20:30:08.062, 1541899808062
112, 33813.85, -16780.50, -187500.02, -187500.02, -187500.02, -187500.02, -187500.02, -187500.02, 0.000, 0.000, 0.000, 20:30:08.062, 1541899808062
113, 34331.09, -15513.61, -187500.02, -187500.02, -187500.02, -187500.02, -187500.02, -187500.02, 0.000, 0.000, 0.000, 20:30:08.062, 1541899808062
114, 34023.06, -15948.21, -187500.02, -187500.02, -187500.02, -187500.02, -187500.02, -187500.02, 0.090, 0.812, 0.570, 20:30:08.062, 1541899808062
115, 33501.08, -17430.58, -187500.02, -187500.02, -187500.02, -187500.02, -187500.02, -187500.02, 0.000, 0.000, 0.000, 20:30:08.062, 1541899808062
116, 33755.38, -16928.63, -187500.02, -187500.02, -187500.02, -187500.02, -187500.02, -187500.02, 0.000, 0.000, 0.000, 20:30:08.062, 1541899808062
117, 34241.04, -15763.21, -187500.02, -187500.02, -187500.02, -187500.02, -187500.02, -187500.02, 0.000, 0.000, 0.000, 20:30:08.063, 1541899808063
118, 34145.77, -15657.31, -187500.02, -187500.02, -187500.02, -187500.02, -187500.02, -187500.02, 0.000, 0.000, 0.000, 20:30:08.063, 1541899808063
119, 33476.79, -17386.84, -187500.02, -187500.02, -187500.02, -187500.02, -187500.02, -187500.02, 0.000, 0.000, 0.000, 20:30:08.063, 1541899808063
120, 33695.48, -17065.27, -187500.02, -187500.02, -187500.02, -187500.02, -187500.02, -187500.02, 0.000, 0.000, 0.000, 20:30:08.063, 1541899808063
121, 34138.15, -16015.47, -187500.02, -187500.02, -187500.02, -187500.02, -187500.02, -187500.02, 0.000, 0.000, 0.000, 20:30:08.063, 1541899808063
122, 34282.61, -15406.27, -187500.02, -187500.02, -187500.02, -187500.02, -187500.02, -187500.02, 0.000, 0.000, 0.000, 20:30:08.503, 1541899808503
123, 33513.73, -17223.56, -187500.02, -187500.02, -187500.02, -187500.02, -187500.02, -187500.02, 0.000, 0.000, 0.000, 20:30:08.503, 1541899808503
124, 33602.47, -17218.71, -187500.02, -187500.02, -187500.02, -187500.02, -187500.02, -187500.02, 0.086, 0.812, 0.564, 20:30:08.503, 1541899808503
125, 34014.95, -16286.02, -187500.02, -187500.02, -187500.02, -187500.02, -187500.02, -187500.02, 0.000, 0.000, 0.000, 20:30:08.503, 1541899808503
126, 34364.22, -15286.60, -187500.02, -187500.02, -187500.02, -187500.02, -187500.02, -187500.02, 0.000, 0.000, 0.000, 20:30:08.503, 1541899808503
127, 33614.63, -16947.52, -187500.02, -187500.02, -187500.02, -187500.02, -187500.02, -187500.02, 0.000, 0.000, 0.000, 20:30:08.503, 1541899808503
128, 33585.35, -17310.51, -187500.02, -187500.02, -187500.02, -187500.02, -187500.02, -187500.02, 0.000, 0.000, 0.000, 20:30:08.503, 1541899808503
129, 33919.40, -16505.13, -187500.02, -187500.02, -187500.02, -187500.02, -187500.02, -187500.02, 0.000, 0.000, 0.000, 20:30:08.504, 1541899808504
130, 34365.92, -15288.55, -187500.02, -187500.02, -187500.02, -187500.02, -187500.02, -187500.02, 0.000, 0.000, 0.000, 20:30:08.504, 1541899808504
131, 33717.23, -16624.24, -187500.02, -187500.02, -187500.02, -187500.02, -187500.02, -187500.02, 0.000, 0.000, 0.000, 20:30:08.504, 1541899808504
132, 33489.46, -17436.51, -187500.02, -187500.02, -187500.02, -187500.02, -187500.02, -187500.02, 0.000, 0.000, 0.000, 20:30:08.504, 1541899808504
133, 33838.59, -16691.81, -187500.02, -187500.02, -187500.02, -187500.02, -187500.02, -187500.02, 0.000, 0.000, 0.000, 20:30:08.504, 1541899808504
134, 34386.17, -15360.39, -187500.02, -187500.02, -187500.02, -187500.02, -187500.02, -187500.02, 0.082, 0.810, 0.566, 20:30:08.505, 1541899808505
135, 33919.02, -16210.09, -187500.02, -187500.02, -187500.02, -187500.02, -187500.02, -187500.02, 0.000, 0.000, 0.000, 20:30:08.505, 1541899808505
136, 33547.75, -17399.71, -187500.02, -187500.02, -187500.02, -187500.02, -187500.02, -187500.02, 0.000, 0.000, 0.000, 20:30:08.506, 1541899808506
137, 33827.20, -16805.63, -187500.02, -187500.02, -187500.02, -187500.02, -187500.02, -187500.02, 0.000, 0.000, 0.000, 20:30:08.506, 1541899808506
138, 34341.80, -15556.79, -187500.02, -187500.02, -187500.02, -187500.02, -187500.02, -187500.02, 0.000, 0.000, 0.000, 20:30:08.506, 1541899808506
139, 34052.88, -15891.55, -187500.02, -187500.02, -187500.02, -187500.02, -187500.02, -187500.02, 0.000, 0.000, 0.000, 20:30:08.506, 1541899808506
140, 33484.61, -17434.79, -187500.02, -187500.02, -187500.02, -187500.02, -187500.02, -187500.02, 0.000, 0.000, 0.000, 20:30:08.506, 1541899808506
141, 33717.88, -16976.62, -187500.02, -187500.02, -187500.02, -187500.02, -187500.02, -187500.02, 0.000, 0.000, 0.000, 20:30:08.506, 1541899808506
142, 34193.72, -15837.78, -187500.02, -187500.02, -187500.02, -187500.02, -187500.02, -187500.02, 0.000, 0.000, 0.000, 20:30:08.506, 1541899808506
143, 34200.58, -15573.40, -187500.02, -187500.02, -187500.02, -187500.02, -187500.02, -187500.02, 0.000, 0.000, 0.000, 20:30:08.506, 1541899808506
144, 33492.75, -17337.11, -187500.02, -187500.02, -187500.02, -187500.02, -187500.02, -187500.02, 0.090, 0.808, 0.566, 20:30:08.506, 1541899808506
145, 33678.22, -17080.62, -187500.02, -187500.02, -187500.02, -187500.02, -187500.02, -187500.02, 0.000, 0.000, 0.000, 20:30:08.507, 1541899808507
146, 34105.52, -16069.34, -187500.02, -187500.02, -187500.02, -187500.02, -187500.02, -187500.02, 0.000, 0.000, 0.000, 20:30:08.507, 1541899808507
147, 34268.78, -15404.06, -187500.02, -187500.02, -187500.02, -187500.02, -187500.02, -187500.02, 0.000, 0.000, 0.000, 20:30:08.507, 1541899808507
148, 33532.98, -17168.38, -187500.02, -187500.02, -187500.02, -187500.02, -187500.02, -187500.02, 0.000, 0.000, 0.000, 20:30:08.507, 1541899808507
149, 33643.69, -17197.03, -187500.02, -187500.02, -187500.02, -187500.02, -187500.02, -187500.02, 0.000, 0.000, 0.000, 20:30:08.507, 1541899808507
150, 34017.95, -16327.41, -187500.02, -187500.02, -187500.02, -187500.02, -187500.02, -187500.02, 0.000, 0.000, 0.000, 20:30:08.507, 1541899808507
151, 34372.55, -15291.70, -187500.02, -187500.02, -187500.02, -187500.02, -187500.02, -187500.02, 0.000, 0.000, 0.000, 20:30:08.507, 1541899808507
152, 33629.45, -16895.88, -187500.02, -187500.02, -187500.02, -187500.02, -187500.02, -187500.02, 0.000, 0.000, 0.000, 20:30:08.507, 1541899808507
153, 33572.92, -17332.97, -187500.02, -187500.02, -187500.02, -187500.02, -187500.02, -187500.02, 0.000, 0.000, 0.000, 20:30:08.507, 1541899808507
154, 33879.36, -16576.14, -187500.02, -187500.02, -187500.02, -187500.02, -187500.02, -187500.02, 0.098, 0.806, 0.566, 20:30:08.508, 1541899808508
155, 34360.87, -15318.23, -187500.02, -187500.02, -187500.02, -187500.02, -187500.02, -187500.02, 0.000, 0.000, 0.000, 20:30:08.508, 1541899808508
156, 33737.59, -16574.85, -187500.02, -187500.02, -187500.02, -187500.02, -187500.02, -187500.02, 0.000, 0.000, 0.000, 20:30:08.508, 1541899808508
157, 33482.89, -17452.00, -187500.02, -187500.02, -187500.02, -187500.02, -187500.02, -187500.02, 0.000, 0.000, 0.000, 20:30:08.508, 1541899808508
158, 33827.04, -16727.29, -187500.02, -187500.02, -187500.02, -187500.02, -187500.02, -187500.02, 0.000, 0.000, 0.000, 20:30:08.508, 1541899808508
159, 34336.41, -15451.25, -187500.02, -187500.02, -187500.02, -187500.02, -187500.02, -187500.02, 0.000, 0.000, 0.000, 20:30:08.508, 1541899808508
160, 33922.13, -16182.19, -187500.02, -187500.02, -187500.02, -187500.02, -187500.02, -187500.02, 0.000, 0.000, 0.000, 20:30:08.508, 1541899808508
161, 33489.93, -17464.40, -187500.02, -187500.02, -187500.02, -187500.02, -187500.02, -187500.02, 0.000, 0.000, 0.000, 20:30:08.508, 1541899808508
162, 33760.99, -16887.37, -187500.02, -187500.02, -187500.02, -187500.02, -187500.02, -187500.02, 0.000, 0.000, 0.000, 20:30:08.508, 1541899808508
163, 34255.03, -15658.94, -187500.02, -187500.02, -187500.02, -187500.02, -187500.02, -187500.02, 0.098, 0.810, 0.560, 20:30:08.508, 1541899808508
164, 34018.55, -15882.12, -187500.02, -187500.02, -187500.02, -187500.02, -187500.02, -187500.02, 0.000, 0.000, 0.000, 20:30:08.509, 1541899808509
165, 33421.49, -17477.43, -187500.02, -187500.02, -187500.02, -187500.02, -187500.02, -187500.02, 0.000, 0.000, 0.000, 20:30:08.509, 1541899808509
166, 33695.79, -17017.66, -187500.02, -187500.02, -187500.02, -187500.02, -187500.02, -187500.02, 0.000, 0.000, 0.000, 20:30:08.511, 1541899808511
167, 34162.43, -15903.13, -187500.02, -187500.02, -187500.02, -187500.02, -187500.02, -187500.02, 0.000, 0.000, 0.000, 20:30:08.511, 1541899808511
168, 34170.96, -15571.07, -187500.02, -187500.02, -187500.02, -187500.02, -187500.02, -187500.02, 0.000, 0.000, 0.000, 20:30:08.511, 1541899808511
169, 33460.76, -17353.42, -187500.02, -187500.02, -187500.02, -187500.02, -187500.02, -187500.02, 0.000, 0.000, 0.000, 20:30:08.511, 1541899808511
170, 33653.57, -17137.64, -187500.02, -187500.02, -187500.02, -187500.02, -187500.02, -187500.02, 0.000, 0.000, 0.000, 20:30:08.511, 1541899808511
171, 34085.25, -16142.07, -187500.02, -187500.02, -187500.02, -187500.02, -187500.02, -187500.02, 0.000, 0.000, 0.000, 20:30:08.511, 1541899808511
172, 34283.30, -15381.98, -187500.02, -187500.02, -187500.02, -187500.02, -187500.02, -187500.02, 0.000, 0.000, 0.000, 20:30:08.512, 1541899808512
173, 33524.55, -17144.41, -187500.02, -187500.02, -187500.02, -187500.02, -187500.02, -187500.02, 0.100, 0.812, 0.560, 20:30:08.512, 1541899808512
174, 33586.36, -17263.30, -187500.02, -187500.02, -187500.02, -187500.02, -187500.02, -187500.02, 0.000, 0.000, 0.000, 20:30:08.512, 1541899808512
175, 33959.36, -16387.61, -187500.02, -187500.02, -187500.02, -187500.02, -187500.02, -187500.02, 0.000, 0.000, 0.000, 20:30:08.513, 1541899808513
176, 34363.88, -15270.53, -187500.02, -187500.02, -187500.02, -187500.02, -187500.02, -187500.02, 0.000, 0.000, 0.000, 20:30:08.513, 1541899808513
177, 33641.65, -16828.18, -187500.02, -187500.02, -187500.02, -187500.02, -187500.02, -187500.02, 0.000, 0.000, 0.000, 20:30:08.513, 1541899808513
178, 33559.64, -17351.03, -187500.02, -187500.02, -187500.02, -187500.02, -187500.02, -187500.02, 0.000, 0.000, 0.000, 20:30:08.513, 1541899808513
179, 33884.77, -16593.98, -187500.02, -187500.02, -187500.02, -187500.02, -187500.02, -187500.02, 0.000, 0.000, 0.000, 20:30:08.513, 1541899808513
180, 34344.26, -15351.16, -187500.02, -187500.02, -187500.02, -187500.02, -187500.02, -187500.02, 0.000, 0.000, 0.000, 20:30:08.513, 1541899808513
181, 33748.92, -16508.01, -187500.02, -187500.02, -187500.02, -187500.02, -187500.02, -187500.02, 0.000, 0.000, 0.000, 20:30:08.513, 1541899808513
182, 33479.29, -17462.17, -187500.02, -187500.02, -187500.02, -187500.02, -187500.02, -187500.02, 0.000, 0.000, 0.000, 20:30:08.513, 1541899808513
183, 33806.34, -16777.31, -187500.02, -187500.02, -187500.02, -187500.02, -187500.02, -187500.02, 0.098, 0.814, 0.562, 20:30:08.514, 1541899808514
184, 34348.06, -15472.59, -187500.02, -187500.02, -187500.02, -187500.02, -187500.02, -187500.02, 0.000, 0.000, 0.000, 20:30:08.514, 1541899808514
185, 33894.95, -16160.85, -187500.02, -187500.02, -187500.02, -187500.02, -187500.02, -187500.02, 0.000, 0.000, 0.000, 20:30:08.531, 1541899808531
186, 33463.64, -17465.25, -187500.02, -187500.02, -187500.02, -187500.02, -187500.02, -187500.02, 0.000, 0.000, 0.000, 20:30:08.532, 1541899808532
187, 33734.21, -16900.02, -187500.02, -187500.02, -187500.02, -187500.02, -187500.02, -187500.02, 0.000, 0.000, 0.000, 20:30:08.532, 1541899808532
188, 34227.96, -15693.90, -187500.02, -187500.02, -187500.02, -187500.02, -187500.02, -187500.02, 0.000, 0.000, 0.000, 20:30:08.533, 1541899808533
189, 34064.28, -15779.97, -187500.02, -187500.02, -187500.02, -187500.02, -187500.02, -187500.02, 0.000, 0.000, 0.000, 20:30:08.533, 1541899808533
190, 33452.43, -17425.29, -187500.02, -187500.02, -187500.02, -187500.02, -187500.02, -187500.02, 0.000, 0.000, 0.000, 20:30:08.534, 1541899808534
191, 33679.52, -17025.46, -187500.02, -187500.02, -187500.02, -187500.02, -187500.02, -187500.02, 0.000, 0.000, 0.000, 20:30:08.534, 1541899808534
192, 34164.71, -15904.88, -187500.02, -187500.02, -187500.02, -187500.02, -187500.02, -187500.02, 0.000, 0.000, 0.000, 20:30:08.534, 1541899808534
193, 34197.70, -15510.01, -187500.02, -187500.02, -187500.02, -187500.02, -187500.02, -187500.02, 0.094, 0.808, 0.560, 20:30:08.534, 1541899808534
194, 33478.80, -17316.48, -187500.02, -187500.02, -187500.02, -187500.02, -187500.02, -187500.02, 0.000, 0.000, 0.000, 20:30:08.534, 1541899808534
195, 33621.67, -17184.45, -187500.02, -187500.02, -187500.02, -187500.02, -187500.02, -187500.02, 0.000, 0.000, 0.000, 20:30:08.535, 1541899808535
196, 34018.82, -16217.69, -187500.02, -187500.02, -187500.02, -187500.02, -187500.02, -187500.02, 0.000, 0.000, 0.000, 20:30:08.537, 1541899808537
197, 34278.99, -15369.66, -187500.02, -187500.02, -187500.02, -187500.02, -187500.02, -187500.02, 0.000, 0.000, 0.000, 20:30:08.537, 1541899808537
198, 33551.73, -17083.26, -187500.02, -187500.02, -187500.02, -187500.02, -187500.02, -187500.02, 0.000, 0.000, 0.000, 20:30:08.537, 1541899808537
199, 33572.74, -17291.29, -187500.02, -187500.02, -187500.02, -187500.02, -187500.02, -187500.02, 0.000, 0.000, 0.000, 20:30:08.538, 1541899808538
200, 33906.54, -16457.34, -187500.02, -187500.02, -187500.02, -187500.02, -187500.02, -187500.02, 0.000, 0.000, 0.000, 20:30:08.538, 1541899808538
201, 34303.85, -15326.28, -187500.02, -187500.02, -187500.02, -187500.02, -187500.02, -187500.02, 0.000, 0.000, 0.000, 20:30:08.538, 1541899808538
202, 33638.84, -16789.82, -187500.02, -187500.02, -187500.02, -187500.02, -187500.02, -187500.02, 0.092, 0.816, 0.560, 20:30:08.538, 1541899808538
203, 33505.73, -17402.78, -187500.02, -187500.02, -187500.02, -187500.02, -187500.02, -187500.02, 0.000, 0.000, 0.000, 20:30:08.538, 1541899808538
204, 33842.98, -16640.65, -187500.02, -187500.02, -187500.02, -187500.02, -187500.02, -187500.02, 0.000, 0.000, 0.000, 20:30:08.538, 1541899808538
205, 34341.35, -15350.53, -187500.02, -187500.02, -187500.02, -187500.02, -187500.02, -187500.02, 0.000, 0.000, 0.000, 20:30:08.538, 1541899808538
206, 33774.40, -16426.79, -187500.02, -187500.02, -187500.02, -187500.02, -187500.02, -187500.02, 0.000, 0.000, 0.000, 20:30:08.538, 1541899808538
207, 33458.41, -17479.98, -187500.02, -187500.02, -187500.02, -187500.02, -187500.02, -187500.02, 0.000, 0.000, 0.000, 20:30:08.538, 1541899808538
208, 33754.22, -16829.32, -187500.02, -187500.02, -187500.02, -187500.02, -187500.02, -187500.02, 0.000, 0.000, 0.000, 20:30:08.538, 1541899808538
209, 34276.46, -15543.36, -187500.02, -187500.02, -187500.02, -187500.02, -187500.02, -187500.02, 0.000, 0.000, 0.000, 20:30:08.539, 1541899808539
210, 33919.80, -16084.67, -187500.02, -187500.02, -187500.02, -187500.02, -187500.02, -187500.02, 0.000, 0.000, 0.000, 20:30:08.539, 1541899808539
211, 33401.08, -17529.06, -187500.02, -187500.02, -187500.02, -187500.02, -187500.02, -187500.02, 0.000, 0.000, 0.000, 20:30:08.539, 1541899808539
212, 33692.71, -16964.75, -187500.02, -187500.02, -187500.02, -187500.02, -187500.02, -187500.02, 0.086, 0.820, 0.562, 20:30:08.539, 1541899808539
213, 34195.48, -15754.92, -187500.02, -187500.02, -187500.02, -187500.02, -187500.02, -187500.02, 0.000, 0.000, 0.000, 20:30:08.539, 1541899808539
214, 34096.64, -15725.88, -187500.02, -187500.02, -187500.02, -187500.02, -187500.02, -187500.02, 0.000, 0.000, 0.000, 20:30:08.539, 1541899808539
215, 33458.19, -17427.79, -187500.02, -187500.02, -187500.02, -187500.02, -187500.02, -187500.02, 0.000, 0.000, 0.000, 20:30:08.539, 1541899808539
216, 33668.21, -17085.03, -187500.02, -187500.02, -187500.02, -187500.02, -187500.02, -187500.02, 0.000, 0.000, 0.000, 20:30:08.539, 1541899808539
217, 34094.70, -16022.04, -187500.02, -187500.02, -187500.02, -187500.02, -187500.02, -187500.02, 0.000, 0.000, 0.000, 20:30:08.539, 1541899808539
218, 34193.05, -15493.58, -187500.02, -187500.02, -187500.02, -187500.02, -187500.02, -187500.02, 0.000, 0.000, 0.000, 20:30:08.539, 1541899808539
219, 33460.65, -17295.15, -187500.02, -187500.02, -187500.02, -187500.02, -187500.02, -187500.02, 0.000, 0.000, 0.000, 20:30:08.539, 1541899808539
220, 33588.37, -17221.30, -187500.02, -187500.02, -187500.02, -187500.02, -187500.02, -187500.02, 0.000, 0.000, 0.000, 20:30:08.540, 1541899808540
221, 33997.88, -16259.87, -187500.02, -187500.02, -187500.02, -187500.02, -187500.02, -187500.02, 0.000, 0.000, 0.000, 20:30:08.540, 1541899808540
222, 34283.86, -15353.97, -187500.02, -187500.02, -187500.02, -187500.02, -187500.02, -187500.02, 0.092, 0.818, 0.566, 20:30:08.540, 1541899808540
223, 33514.70, -17097.12, -187500.02, -187500.02, -187500.02, -187500.02, -187500.02, -187500.02, 0.000, 0.000, 0.000, 20:30:08.540, 1541899808540
224, 33544.04, -17338.43, -187500.02, -187500.02, -187500.02, -187500.02, -187500.02, -187500.02, 0.000, 0.000, 0.000, 20:30:08.540, 1541899808540
225, 33901.43, -16491.94, -187500.02, -187500.02, -187500.02, -187500.02, -187500.02, -187500.02, 0.000, 0.000, 0.000, 20:30:08.540, 1541899808540
226, 34345.89, -15301.96, -187500.02, -187500.02, -187500.02, -187500.02, -187500.02, -187500.02, 0.000, 0.000, 0.000, 20:30:08.540, 1541899808540
227, 33684.01, -16721.16, -187500.02, -187500.02, -187500.02, -187500.02, -187500.02, -187500.02, 0.000, 0.000, 0.000, 20:30:08.540, 1541899808540
228, 33496.14, -17438.83, -187500.02, -187500.02, -187500.02, -187500.02, -187500.02, -187500.02, 0.000, 0.000, 0.000, 20:30:08.540, 1541899808540
229, 33818.55, -16696.62, -187500.02, -187500.02, -187500.02, -187500.02, -187500.02, -187500.02, 0.000, 0.000, 0.000, 20:30:08.540, 1541899808540
230, 34340.19, -15394.74, -187500.02, -187500.02, -187500.02, -187500.02, -187500.02, -187500.02, 0.000, 0.000, 0.000, 20:30:08.540, 1541899808540
231, 33779.36, -16392.43, -187500.02, -187500.02, -187500.02, -187500.02, -187500.02, -187500.02, 0.000, 0.000, 0.000, 20:30:08.541, 1541899808541
232, 33436.91, -17494.91, -187500.02, -187500.02, -187500.02, -187500.02, -187500.02, -187500.02, 0.094, 0.816, 0.562, 20:30:08.541, 1541899808541
233, 33739.60, -16852.57, -187500.02, -187500.02, -187500.02, -187500.02, -187500.02, -187500.02, 0.000, 0.000, 0.000, 20:30:08.541, 1541899808541
234, 34243.03, -15608.49, -187500.02, -187500.02, -187500.02, -187500.02, -187500.02, -187500.02, 0.000, 0.000, 0.000, 20:30:08.541, 1541899808541
235, 33950.51, -16017.82, -187500.02, -187500.02, -187500.02, -187500.02, -187500.02, -187500.02, 0.000, 0.000, 0.000, 20:30:08.541, 1541899808541
236, 33430.16, -17490.13, -187500.02, -187500.02, -187500.02, -187500.02, -187500.02, -187500.02, 0.000, 0.000, 0.000, 20:30:08.541, 1541899808541
237, 33693.15, -17002.39, -187500.02, -187500.02, -187500.02, -187500.02, -187500.02, -187500.02, 0.000, 0.000, 0.000, 20:30:08.541, 1541899808541
238, 34183.26, -15822.29, -187500.02, -187500.02, -187500.02, -187500.02, -187500.02, -187500.02, 0.000, 0.000, 0.000, 20:30:08.541, 1541899808541
239, 34090.10, -15693.61, -187500.02, -187500.02, -187500.02, -187500.02, -187500.02, -187500.02, 0.000, 0.000, 0.000, 20:30:08.541, 1541899808541
240, 33435.39, -17408.52, -187500.02, -187500.02, -187500.02, -187500.02, -187500.02, -187500.02, 0.000, 0.000, 0.000, 20:30:08.541, 1541899808541
241, 33636.91, -17115.20, -187500.02, -187500.02, -187500.02, -187500.02, -187500.02, -187500.02, 0.000, 0.000, 0.000, 20:30:08.541, 1541899808541
242, 34051.52, -16101.37, -187500.02, -187500.02, -187500.02, -187500.02, -187500.02, -187500.02, 0.102, 0.816, 0.564, 20:30:08.720, 1541899808720
243, 34212.94, -15461.68, -187500.02, -187500.02, -187500.02, -187500.02, -187500.02, -187500.02, 0.000, 0.000, 0.000, 20:30:08.720, 1541899808720
244, 33462.48, -17259.14, -187500.02, -187500.02, -187500.02, -187500.02, -187500.02, -187500.02, 0.000, 0.000, 0.000, 20:30:08.720, 1541899808720
245, 33583.67, -17240.28, -187500.02, -187500.02, -187500.02, -187500.02, -187500.02, -187500.02, 0.000, 0.000, 0.000, 20:30:08.720, 1541899808720
246, 33942.44, -16353.97, -187500.02, -187500.02, -187500.02, -187500.02, -187500.02, -187500.02, 0.000, 0.000, 0.000, 20:30:08.720, 1541899808720
247, 34283.06, -15348.41, -187500.02, -187500.02, -187500.02, -187500.02, -187500.02, -187500.02, 0.000, 0.000, 0.000, 20:30:08.721, 1541899808721
248, 33558.86, -16989.09, -187500.02, -187500.02, -187500.02, -187500.02, -187500.02, -187500.02, 0.000, 0.000, 0.000, 20:30:08.721, 1541899808721
249, 33517.56, -17349.65, -187500.02, -187500.02, -187500.02, -187500.02, -187500.02, -187500.02, 0.000, 0.000, 0.000, 20:30:08.721, 1541899808721
250, 33873.00, -16550.57, -187500.02, -187500.02, -187500.02, -187500.02, -187500.02, -187500.02, 0.000, 0.000, 0.000, 20:30:08.721, 1541899808721
251, 34314.53, -15355.36, -187500.02, -187500.02, -187500.02, -187500.02, -187500.02, -187500.02, 0.096, 0.816, 0.560, 20:30:08.721, 1541899808721
252, 33636.04, -16723.46, -187500.02, -187500.02, -187500.02, -187500.02, -187500.02, -187500.02, 0.000, 0.000, 0.000, 20:30:08.721, 1541899808721
253, 33461.39, -17467.80, -187500.02, -187500.02, -187500.02, -187500.02, -187500.02, -187500.02, 0.000, 0.000, 0.000, 20:30:08.721, 1541899808721
254, 33768.81, -16759.25, -187500.02, -187500.02, -187500.02, -187500.02, -187500.02, -187500.02, 0.000, 0.000, 0.000, 20:30:08.721, 1541899808721
255, 34282.52, -15455.20, -187500.02, -187500.02, -187500.02, -187500.02, -187500.02, -187500.02, 0.000, 0.000, 0.000, 20:30:08.721, 1541899808721
0, 33808.96, -16311.45, -187500.02, -187500.02, -187500.02, -187500.02, -187500.02, -187500.02, 0.000, 0.000, 0.000, 20:30:08.721, 1541899808721
1, 33433.87, -17512.68, -187500.02, -187500.02, -187500.02, -187500.02, -187500.02, -187500.02, 0.000, 0.000, 0.000, 20:30:08.722, 1541899808722
2, 33706.36, -16911.60, -187500.02, -187500.02, -187500.02, -187500.02, -187500.02, -187500.02, 0.000, 0.000, 0.000, 20:30:08.722, 1541899808722
3, 34206.53, -15660.75, -187500.02, -187500.02, -187500.02, -187500.02, -187500.02, -187500.02, 0.000, 0.000, 0.000, 20:30:08.722, 1541899808722
4, 33934.64, -15983.42, -187500.02, -187500.02, -187500.02, -187500.02, -187500.02, -187500.02, 0.000, 0.000, 0.000, 20:30:08.722, 1541899808722
5, 33369.28, -17526.65, -187500.02, -187500.02, -187500.02, -187500.02, -187500.02, -187500.02, 0.096, 0.822, 0.560, 20:30:08.722, 1541899808722
6, 33626.66, -17041.35, -187500.02, -187500.02, -187500.02, -187500.02, -187500.02, -187500.02, 0.000, 0.000, 0.000, 20:30:08.722, 1541899808722
7, 34135.00, -15862.34, -187500.02, -187500.02, -187500.02, -187500.02, -187500.02, -187500.02, 0.000, 0.000, 0.000, 20:30:08.722, 1541899808722
8, 34098.88, -15648.30, -187500.02, -187500.02, -187500.02, -187500.02, -187500.02, -187500.02, 0.000, 0.000, 0.000, 20:30:08.722, 1541899808722
9, 33421.00, -17414.42, -187500.02, -187500.02, -187500.02, -187500.02, -187500.02, -187500.02, 0.000, 0.000, 0.000, 20:30:08.722, 1541899808722
10, 33583.92, -17189.50, -187500.02, -187500.02, -187500.02, -187500.02, -187500.02, -187500.02, 0.000, 0.000, 0.000, 20:30:08.722, 1541899808722
11, 33996.69, -16173.63, -187500.02, -187500.02, -187500.02, -187500.02, -187500.02, -187500.02, 0.000, 0.000, 0.000, 20:30:08.723, 1541899808723
12, 34209.99, -15426.32, -187500.02, -187500.02, -187500.02, -187500.02, -187500.02, -187500.02, 0.000, 0.000, 0.000, 20:30:08.723, 1541899808723
13, 33477.86, -17181.96, -187500.02, -187500.02, -187500.02, -187500.02, -187500.02, -187500.02, 0.000, 0.000, 0.000, 20:30:08.723, 1541899808723
14, 33529.00, -17272.24, -187500.02, -187500.02, -187500.02, -187500.02, -187500.02, -187500.02, 0.000, 0.000, 0.000, 20:30:08.723, 1541899808723
15, 33910.57, -16364.11, -187500.02, -187500.02, -187500.02, -187500.02, -187500.02, -187500.02, 0.094, 0.824, 0.556, 20:30:08.723, 1541899808723
16, 34253.24, -15322.32, -187500.02, -187500.02, -187500.02, -187500.02, -187500.02, -187500.02, 0.000, 0.000, 0.000, 20:30:08.723, 1541899808723
17, 33528.55, -16920.65, -187500.02, -187500.02, -187500.02, -187500.02, -187500.02, -187500.02, 0.000, 0.000, 0.000, 20:30:08.723, 1541899808723
18, 33452.87, -17373.29, -187500.02, -187500.02, -187500.02, -187500.02, -187500.02, -187500.02, 0.000, 0.000, 0.000, 20:30:08.723, 1541899808723
19, 33777.08, -16586.40, -187500.02, -187500.02, -187500.02, -187500.02, -187500.02, -187500.02, 0.000, 0.000, 0.000, 20:30:08.723, 1541899808723
20, 34246.49, -15323.89, -187500.02, -187500.02, -187500.02, -187500.02, -187500.02, -187500.02, 0.000, 0.000, 0.000, 20:30:08.724, 1541899808724
21, 33625.09, -16559.31, -187500.02, -187500.02, -187500.02, -187500.02, -187500.02, -187500.02, 0.000, 0