%OpenBCI Raw EEG Data
%Number of channels = 8
%Sample Rate = 250.0 Hz
%First Column = SampleIndex
%Last Column = Timestamp 
%Other Columns = EEG data in microvolts followed by Accel Data (in G) interleaved with Aux Data
0, 0.00, 0.00, 0.00, 0.00, 0.00, 0.00, 0.00, 0.00, -0.050, 0.940, 0.288, 22:59:32.102, 1541908772102
1, 3312.08, 16462.44, 187500.00, 187500.00, -187500.02, -187500.02, -187500.02, -187500.02, 0.000, 0.000, 0.000, 22:59:32.586, 1541908772586
2, 3419.41, 16848.28, 187500.00, 187500.00, -187500.02, -187500.02, -187500.02, -187500.02, 0.000, 0.000, 0.000, 22:59:32.586, 1541908772586
3, 3214.58, 16737.52, 187500.00, 187500.00, -187500.02, -187500.02, -187500.02, -187500.02, 0.000, 0.000, 0.000, 22:59:32.586, 1541908772586
4, 3061.18, 16409.15, 187500.00, 187500.00, -187500.02, -187500.02, -187500.02, -187500.02, 0.000, 0.000, 0.000, 22:59:32.587, 1541908772587
5, 3220.91, 16389.75, 187500.00, 187500.00, -187500.02, -187500.02, -187500.02, -187500.02, 0.000, 0.000, 0.000, 22:59:32.587, 1541908772587
6, 3436.89, 16842.29, 187500.00, 187500.00, -187500.02, -187500.02, -187500.02, -187500.02, 0.000, 0.000, 0.000, 22:59:32.587, 1541908772587
7, 3262.17, 16794.07, 187500.00, 187500.00, -187500.02, -187500.02, -187500.02, -187500.02, -0.134, 0.964, 0.354, 22:59:32.587, 1541908772587
8, 3063.13, 16454.10, 187500.00, 187500.00, -187500.02, -187500.02, -187500.02, -187500.02, 0.000, 0.000, 0.000, 22:59:32.587, 1541908772587
9, 3145.36, 16303.09, 187500.00, 187500.00, -187500.02, -187500.02, -187500.02, -187500.02, 0.000, 0.000, 0.000, 22:59:32.587, 1541908772587
10, 3416.69, 16761.60, 187500.00, 187500.00, -187500.02, -187500.02, -187500.02, -187500.02, 0.000, 0.000, 0.000, 22:59:32.587, 1541908772587
11, 3296.17, 16825.70, 187500.00, 187500.00, -187500.02, -187500.02, -187500.02, -187500.02, 0.000, 0.000, 0.000, 22:59:32.587, 1541908772587
12, 3100.28, 16530.77, 187500.00, 187500.00, -187500.02, -187500.02, -187500.02, -187500.02, 0.000, 0.000, 0.000, 22:59:32.587, 1541908772587
13, 3120.48, 16304.01, 187500.00, 187500.00, -187500.02, -187500.02, -187500.02, -187500.02, 0.000, 0.000, 0.000, 22:59:32.587, 1541908772587
14, 3406.47, 16710.97, 187500.00, 187500.00, -187500.02, -187500.02, -187500.02, -187500.02, 0.000, 0.000, 0.000, 22:59:32.587, 1541908772587
15, 3309.80, 16842.22, 187500.00, 187500.00, -187500.02, -187500.02, -187500.02, -187500.02, 0.000, 0.000, 0.000, 22:59:32.587, 1541908772587
16, 3090.04, 16569.62, 187500.00, 187500.00, -187500.02, -187500.02, -187500.02, -187500.02, 0.000, 0.000, 0.000, 22:59:32.587, 1541908772587
17, 3036.15, 16254.21, 187500.00, 187500.00, -187500.02, -187500.02, -187500.02, -187500.02, -0.118, 0.982, 0.296, 22:59:32.587, 1541908772587
18, 3346.08, 16598.07, 187500.00, 187500.00, -187500.02, -187500.02, -187500.02, -187500.02, 0.000, 0.000, 0.000, 22:59:32.587, 1541908772587
19, 3335.53, 16848.68, 187500.00, 187500.00, -187500.02, -187500.02, -187500.02, -187500.02, 0.000, 0.000, 0.000, 22:59:32.588, 1541908772588
20, 3129.98, 16635.49, 187500.00, 187500.00, -187500.02, -187500.02, -187500.02, -187500.02, 0.000, 0.000, 0.000, 22:59:32.588, 1541908772588
21, 3041.27, 16306.13, 187500.00, 187500.00, -187500.02, -187500.02, -187500.02, -187500.02, 0.000, 0.000, 0.000, 22:59:32.588, 1541908772588
22, 3302.16, 16511.26, 187500.00, 187500.00, -187500.02, -187500.02, -187500.02, -187500.02, 0.000, 0.000, 0.000, 22:59:32.588, 1541908772588
23, 3350.53, 16830.82, 187500.00, 187500.00, -187500.02, -187500.02, -187500.02, -187500.02, 0.000, 0.000, 0.000, 22:59:32.588, 1541908772588
24, 3141.72, 16670.45, 187500.00, 187500.00, -187500.02, -187500.02, -187500.02, -187500.02, 0.000, 0.000, 0.000, 22:59:32.588, 1541908772588
25, 3021.91, 16337.87, 187500.00, 187500.00, -187500.02, -187500.02, -187500.02, -187500.02, 0.000, 0.000, 0.000, 22:59:32.588, 1541908772588
26, 3247.78, 16423.75, 187500.00, 187500.00, -187500.02, -187500.02, -187500.02, -187500.02, 0.000, 0.000, 0.000, 22:59:32.588, 1541908772588
27, 3375.36, 16817.27, 187500.00, 187500.00, -187500.02, -187500.02, -187500.02, -187500.02, -0.038, 0.964, 0.286, 22:59:32.588, 1541908772588
28, 3171.58, 16704.26, 187500.00, 187500.00, -187500.02, -187500.02, -187500.02, -187500.02, 0.000, 0.000, 0.000, 22:59:32.589, 1541908772589
29, 3027.52, 16381.19, 187500.00, 187500.00, -187500.02, -187500.02, -187500.02, -187500.02, 0.000, 0.000, 0.000, 22:59:32.589, 1541908772589
30, 3180.36, 16331.03, 187500.00, 187500.00, -187500.02, -187500.02, -187500.02, -187500.02, 0.000, 0.000, 0.000, 22:59:32.589, 1541908772589
31, 3384.17, 16774.38, 187500.00, 187500.00, -187500.02, -187500.02, -187500.02, -187500.02, 0.000, 0.000, 0.000, 22:59:32.590, 1541908772590
32, 3216.13, 16760.03, 187500.00, 187500.00, -187500.02, -187500.02, -187500.02, -187500.02, 0.000, 0.000, 0.000, 22:59:32.591, 1541908772591
33, 3066.41, 16467.83, 187500.00, 187500.00, -187500.02, -187500.02, -187500.02, -187500.02, 0.000, 0.000, 0.000, 22:59:32.591, 1541908772591
34, 3155.04, 16297.15, 187500.00, 187500.00, -187500.02, -187500.02, -187500.02, -187500.02, 0.000, 0.000, 0.000, 22:59:32.591, 1541908772591
35, 3398.83, 16706.19, 187500.00, 187500.00, -187500.02, -187500.02, -187500.02, -187500.02, 0.000, 0.000, 0.000, 22:59:32.591, 1541908772591
36, 3239.21, 16743.22, 187500.00, 187500.00, -187500.02, -187500.02, -187500.02, -187500.02, 0.000, 0.000, 0.000, 22:59:32.591, 1541908772591
37, 3047.08, 16465.99, 187500.00, 187500.00, -187500.02, -187500.02, -187500.02, -187500.02, 0.034, 0.970, 0.268, 22:59:32.591, 1541908772591
38, 3055.17, 16211.92, 187500.00, 187500.00, -187500.02, -187500.02, -187500.02, -187500.02, 0.000, 0.000, 0.000, 22:59:32.591, 1541908772591
39, 3325.18, 16576.41, 187500.00, 187500.00, -187500.02, -187500.02, -187500.02, -187500.02, 0.000, 0.000, 0.000, 22:59:32.591, 1541908772591
40, 3261.52, 16742.22, 187500.00, 187500.00, -187500.02, -187500.02, -187500.02, -187500.02, 0.000, 0.000, 0.000, 22:59:32.591, 1541908772591
41, 3074.17, 16513.87, 187500.00, 187500.00, -187500.02, -187500.02, -187500.02, -187500.02, 0.000, 0.000, 0.000, 22:59:32.592, 1541908772592
42, 3047.64, 16236.28, 187500.00, 187500.00, -187500.02, -187500.02, -187500.02, -187500.02, 0.000, 0.000, 0.000, 22:59:32.592, 1541908772592
43, 3327.59, 16527.95, 187500.00, 187500.00, -187500.02, -187500.02, -187500.02, -187500.02, 0.000, 0.000, 0.000, 22:59:32.593, 1541908772593
44, 3319.28, 16782.09, 187500.00, 187500.00, -187500.02, -187500.02, -187500.02, -187500.02, 0.000, 0.000, 0.000, 22:59:32.601, 1541908772601
45, 3108.88, 16575.72, 187500.00, 187500.00, -187500.02, -187500.02, -187500.02, -187500.02, 0.000, 0.000, 0.000, 22:59:32.605, 1541908772605
46, 3020.93, 16262.88, 187500.00, 187500.00, -187500.02, -187500.02, -187500.02, -187500.02, 0.000, 0.000, 0.000, 22:59:32.605, 1541908772605
47, 3251.15, 16423.68, 187500.00, 187500.00, -187500.02, -187500.02, -187500.02, -187500.02, 0.094, 0.962, 0.266, 22:59:32.605, 1541908772605
48, 3322.23, 16763.61, 187500.00, 187500.00, -187500.02, -187500.02, -187500.02, -187500.02, 0.000, 0.000, 0.000, 22:59:32.605, 1541908772605
49, 3141.83, 16636.54, 187500.00, 187500.00, -187500.02, -187500.02, -187500.02, -187500.02, 0.000, 0.000, 0.000, 22:59:32.605, 1541908772605
50, 3027.99, 16318.43, 187500.00, 187500.00, -187500.02, -187500.02, -187500.02, -187500.02, 0.000, 0.000, 0.000, 22:59:32.605, 1541908772605
51, 3200.61, 16345.29, 187500.00, 187500.00, -187500.02, -187500.02, -187500.02, -187500.02, 0.000, 0.000, 0.000, 22:59:32.606, 1541908772606
52, 3337.18, 16743.45, 187500.00, 187500.00, -187500.02, -187500.02, -187500.02, -187500.02, 0.000, 0.000, 0.000, 22:59:32.606, 1541908772606
53, 3154.64, 16666.85, 187500.00, 187500.00, -187500.02, -187500.02, -187500.02, -187500.02, 0.000, 0.000, 0.000, 22:59:32.606, 1541908772606
54, 3002.08, 16354.06, 187500.00, 187500.00, -187500.02, -187500.02, -187500.02, -187500.02, 0.000, 0.000, 0.000, 22:59:32.606, 1541908772606
55, 3124.53, 16271.64, 187500.00, 187500.00, -187500.02, -187500.02, -187500.02, -187500.02, 0.000, 0.000, 0.000, 22:59:32.606, 1541908772606
56, 3340.04, 16710.43, 187500.00, 187500.00, -187500.02, -187500.02, -187500.02, -187500.02, 0.102, 0.976, 0.252, 22:59:32.606, 1541908772606
57, 3192.79, 16718.03, 187500.00, 187500.00, -187500.02, -187500.02, -187500.02, -187500.02, 0.000, 0.000, 0.000, 22:59:32.606, 1541908772606
58, 3024.77, 16429.56, 187500.00, 187500.00, -187500.02, -187500.02, -187500.02, -187500.02, 0.000, 0.000, 0.000, 22:59:32.606, 1541908772606
59, 3077.72, 16244.17, 187500.00, 187500.00, -187500.02, -187500.02, -187500.02, -187500.02, 0.000, 0.000, 0.000, 22:59:32.606, 1541908772606
60, 3327.26, 16657.82, 187500.00, 187500.00, -187500.02, -187500.02, -187500.02, -187500.02, 0.000, 0.000, 0.000, 22:59:32.606, 1541908772606
61, 3214.65, 16743.13, 187500.00, 187500.00, -187500.02, -187500.02, -187500.02, -187500.02, 0.000, 0.000, 0.000, 22:59:32.606, 1541908772606
62, 3038.59, 16490.63, 187500.00, 187500.00, -187500.02, -187500.02, -187500.02, -187500.02, 0.000, 0.000, 0.000, 22:59:32.606, 1541908772606
63, 3042.65, 16239.97, 187500.00, 187500.00, -187500.02, -187500.02, -187500.02, -187500.02, 0.000, 0.000, 0.000, 22:59:32.606, 1541908772606
64, 3316.82, 16593.53, 187500.00, 187500.00, -187500.02, -187500.02, -187500.02, -187500.02, 0.000, 0.000, 0.000, 22:59:32.607, 1541908772607
65, 3257.90, 16775.88, 187500.00, 187500.00, -187500.02, -187500.02, -187500.02, -187500.02, 0.000, 0.000, 0.000, 22:59:32.607, 1541908772607
66, 3066.28, 16555.65, 187500.00, 187500.00, -187500.02, -187500.02, -187500.02, -187500.02, 0.080, 0.962, 0.248, 22:59:32.607, 1541908772607
67, 3011.03, 16259.91, 187500.00, 187500.00, -187500.02, -187500.02, -187500.02, -187500.02, 0.000, 0.000, 0.000, 22:59:32.607, 1541908772607
68, 3272.00, 16509.91, 187500.00, 187500.00, -187500.02, -187500.02, -187500.02, -187500.02, 0.000, 0.000, 0.000, 22:59:32.607, 1541908772607
69, 3283.11, 16781.42, 187500.00, 187500.00, -187500.02, -187500.02, -187500.02, -187500.02, 0.000, 0.000, 0.000, 22:59:32.607, 1541908772607
70, 3086.17, 16601.80, 187500.00, 187500.00, -187500.02, -187500.02, -187500.02, -187500.02, 0.000, 0.000, 0.000, 22:59:32.607, 1541908772607
71, 2995.36, 16285.59, 187500.00, 187500.00, -187500.02, -187500.02, -187500.02, -187500.02, 0.000, 0.000, 0.000, 22:59:32.607, 1541908772607
72, 3219.12, 16421.96, 187500.00, 187500.00, -187500.02, -187500.02, -187500.02, -187500.02, 0.000, 0.000, 0.000, 22:59:32.607, 1541908772607
73, 3301.67, 16775.63, 187500.00, 187500.00, -187500.02, -187500.02, -187500.02, -187500.02, 0.000, 0.000, 0.000, 22:59:32.607, 1541908772607
74, 3108.97, 16650.57, 187500.00, 187500.00, -187500.02, -187500.02, -187500.02, -187500.02, 0.000, 0.000, 0.000, 22:59:32.607, 1541908772607
75, 2982.64, 16334.32, 187500.00, 187500.00, -187500.02, -187500.02, -187500.02, -187500.02, 0.000, 0.000, 0.000, 22:59:32.607, 1541908772607
76, 3149.49, 16335.37, 187500.00, 187500.00, -187500.02, -187500.02, -187500.02, -187500.02, 0.066, 0.976, 0.236, 22:59:32.608, 1541908772608
77, 3303.25, 16734.59, 187500.00, 187500.00, -187500.02, -187500.02, -187500.02, -187500.02, 0.000, 0.000, 0.000, 22:59:32.608, 1541908772608
78, 3121.62, 16662.17, 187500.00, 187500.00, -187500.02, -187500.02, -187500.02, -187500.02, 0.000, 0.000, 0.000, 22:59:32.608, 1541908772608
79, 2981.25, 16373.28, 187500.00, 187500.00, -187500.02, -187500.02, -187500.02, -187500.02, 0.000, 0.000, 0.000, 22:59:32.608, 1541908772608
80, 3106.02, 16286.67, 187500.00, 187500.00, -187500.02, -187500.02, -187500.02, -187500.02, 0.000, 0.000, 0.000, 22:59:32.608, 1541908772608
81, 3334.84, 16712.35, 187500.00, 187500.00, -187500.02, -187500.02, -187500.02, -187500.02, 0.000, 0.000, 0.000, 22:59:32.608, 1541908772608
82, 3179.36, 16722.66, 187500.00, 187500.00, -187500.02, -187500.02, -187500.02, -187500.02, 0.000, 0.000, 0.000, 22:59:32.608, 1541908772608
83, 3007.47, 16437.36, 187500.00, 187500.00, -187500.02, -187500.02, -187500.02, -187500.02, 0.000, 0.000, 0.000, 22:59:32.608, 1541908772608
84, 3054.01, 16233.16, 187500.00, 187500.00, -187500.02, -187500.02, -187500.02, -187500.02, 0.000, 0.000, 0.000, 22:59:32.608, 1541908772608
85, 3318.56, 16636.22, 187500.00, 187500.00, -187500.02, -187500.02, -187500.02, -187500.02, 0.000, 0.000, 0.000, 22:59:32.608, 1541908772608
86, 3227.57, 16756.65, 187500.00, 187500.00, -187500.02, -187500.02, -187500.02, -187500.02, 0.056, 0.986, 0.234, 22:59:32.608, 1541908772608
87, 3034.23, 16495.05, 187500.00, 187500.00, -187500.02, -187500.02, -187500.02, -187500.02, 0.000, 0.000, 0.000, 22:59:32.608, 1541908772608
88, 3005.21, 16218.29, 187500.00, 187500.00, -187500.02, -187500.02, -187500.02, -187500.02, 0.000, 0.000, 0.000, 22:59:32.608, 1541908772608
89, 3276.01, 16546.91, 187500.00, 187500.00, -187500.02, -187500.02, -187500.02, -187500.02, 0.000, 0.000, 0.000, 22:59:32.609, 1541908772609
90, 3243.55, 16750.06, 187500.00, 187500.00, -187500.02, -187500.02, -187500.02, -187500.02, 0.000, 0.000, 0.000, 22:59:32.611, 1541908772611
91, 3061.59, 16549.41, 187500.00, 187500.00, -187500.02, -187500.02, -187500.02, -187500.02, 0.000, 0.000, 0.000, 22:59:32.612, 1541908772612
92, 2993.23, 16247.93, 187500.00, 187500.00, -187500.02, -187500.02, -187500.02, -187500.02, 0.000, 0.000, 0.000, 22:59:32.612, 1541908772612
93, 3247.40, 16472.32, 187500.00, 187500.00, -187500.02, -187500.02, -187500.02, -187500.02, 0.000, 0.000, 0.000, 22:59:32.612, 1541908772612
94, 3283.90, 16766.96, 187500.00, 187500.00, -187500.02, -187500.02, -187500.02, -187500.02, 0.000, 0.000, 0.000, 22:59:32.612, 1541908772612
95, 3105.06, 16619.26, 187500.00, 187500.00, -187500.02, -187500.02, -187500.02, -187500.02, 0.054, 0.988, 0.242, 22:59:32.612, 1541908772612
96, 2999.18, 16308.46, 187500.00, 187500.00, -187500.02, -187500.02, -187500.02, -187500.02, 0.000, 0.000, 0.000, 22:59:32.612, 1541908772612
97, 3216.04, 16413.24, 187500.00, 187500.00, -187500.02, -187500.02, -187500.02, -187500.02, 0.000, 0.000, 0.000, 22:59:32.613, 1541908772613
98, 3333.83, 16785.40, 187500.00, 187500.00, -187500.02, -187500.02, -187500.02, -187500.02, 0.000, 0.000, 0.000, 22:59:32.613, 1541908772613
99, 3142.45, 16676.21, 187500.00, 187500.00, -187500.02, -187500.02, -187500.02, -187500.02, 0.000, 0.000, 0.000, 22:59:32.613, 1541908772613
100, 3002.64, 16360.87, 187500.00, 187500.00, -187500.02, -187500.02, -187500.02, -187500.02, 0.000, 0.000, 0.000, 22:59:32.613, 1541908772613
101, 3152.76, 16334.68, 187500.00, 187500.00, -187500.02, -187500.02, -187500.02, -187500.02, 0.000, 0.000, 0.000, 22:59:32.613, 1541908772613
102, 3331.24, 16748.12, 187500.00, 187500.00, -187500.02, -187500.02, -187500.02, -187500.02, 0.000, 0.000, 0.000, 22:59:32.613, 1541908772613
103, 3163.51, 16710.41, 187500.00, 187500.00, -187500.02, -187500.02, -187500.02, -187500.02, 0.000, 0.000, 0.000, 22:59:32.613, 1541908772613
104, 3003.45, 16413.51, 187500.00, 187500.00, -187500.02, -187500.02, -187500.02, -187500.02, 0.000, 0.000, 0.000, 22:59:32.613, 1541908772613
105, 3084.29, 16270.64, 187500.00, 187500.00, -187500.02, -187500.02, -187500.02, -187500.02, 0.034, 0.990, 0.256, 22:59:32.613, 1541908772613
106, 3315.66, 16692.71, 187500.00, 187500.00, -187500.02, -187500.02, -187500.02, -187500.02, 0.000, 0.000, 0.000, 22:59:32.613, 1541908772613
107, 3193.71, 16752.59, 187500.00, 187500.00, -187500.02, -187500.02, -187500.02, -187500.02, 0.000, 0.000, 0.000, 22:59:32.613, 1541908772613
108, 3018.65, 16483.27, 187500.00, 187500.00, -187500.02, -187500.02, -187500.02, -187500.02, 0.000, 0.000, 0.000, 22:59:32.614, 1541908772614
109, 3037.22, 16253.76, 187500.00, 187500.00, -187500.02, -187500.02, -187500.02, -187500.02, 0.000, 0.000, 0.000, 22:59:32.614, 1541908772614
110, 3296.86, 16620.58, 187500.00, 187500.00, -187500.02, -187500.02, -187500.02, -187500.02, 0.000, 0.000, 0.000, 22:59:32.614, 1541908772614
111, 3213.91, 16761.57, 187500.00, 187500.00, -187500.02, -187500.02, -187500.02, -187500.02, 0.000, 0.000, 0.000, 22:59:32.614, 1541908772614
112, 3037.47, 16539.57, 187500.00, 187500.00, -187500.02, -187500.02, -187500.02, -187500.02, 0.000, 0.000, 0.000, 22:59:32.614, 1541908772614
113, 3012.34, 16259.19, 187500.00, 187500.00, -187500.02, -187500.02, -187500.02, -187500.02, 0.000, 0.000, 0.000, 22:59:32.614, 1541908772614
114, 3294.74, 16561.48, 187500.00, 187500.00, -187500.02, -187500.02, -187500.02, -187500.02, 0.000, 0.000, 0.000, 22:59:32.614, 1541908772614
115, 3296.32, 16800.55, 187500.00, 187500.00, -187500.02, -187500.02, -187500.02, -187500.02, 0.042, 0.972, 0.256, 22:59:32.615, 1541908772615
116, 3140.55, 16634.50, 187500.00, 187500.00, -187500.02, -187500.02, -187500.02, -187500.02, 0.000, 0.000, 0.000, 22:59:32.615, 1541908772615
117, 3075.62, 16334.41, 187500.00, 187500.00, -187500.02, -187500.02, -187500.02, -187500.02, 0.000, 0.000, 0.000, 22:59:32.615, 1541908772615
118, 3311.25, 16511.41, 187500.00, 187500.00, -187500.02, -187500.02, -187500.02, -187500.02, 0.000, 0.000, 0.000, 22:59:32.615, 1541908772615
119, 3380.32, 16829.01, 187500.00, 187500.00, -187500.02, -187500.02, -187500.02, -187500.02, 0.000, 0.000, 0.000, 22:59:32.615, 1541908772615
120, 3210.63, 16695.66, 187500.00, 187500.00, -187500.02, -187500.02, -187500.02, -187500.02, 0.000, 0.000, 0.000, 22:59:32.615, 1541908772615
121, 3111.16, 16394.47, 187500.00, 187500.00, -187500.02, -187500.02, -187500.02, -187500.02, 0.000, 0.000, 0.000, 22:59:33.067, 1541908773067
122, 3302.89, 16450.57, 187500.00, 187500.00, -187500.02, -187500.02, -187500.02, -187500.02, 0.000, 0.000, 0.000, 22:59:33.067, 1541908773067
123, 3438.61, 16838.35, 187500.00, 187500.00, -187500.02, -187500.02, -187500.02, -187500.02, 0.000, 0.000, 0.000, 22:59:33.067, 1541908773067
124, 3269.30, 16759.63, 187500.00, 187500.00, -187500.02, -187500.02, -187500.02, -187500.02, 0.000, 0.000, 0.000, 22:59:33.067, 1541908773067
125, 3128.48, 16456.54, 187500.00, 187500.00, -187500.02, -187500.02, -187500.02, -187500.02, 0.064, 0.972, 0.264, 22:59:33.067, 1541908773067
126, 3266.26, 16402.58, 187500.00, 187500.00, -187500.02, -187500.02, -187500.02, -187500.02, 0.000, 0.000, 0.000, 22:59:33.067, 1541908773067
127, 3441.52, 16798.19, 187500.00, 187500.00, -187500.02, -187500.02, -187500.02, -187500.02, 0.000, 0.000, 0.000, 22:59:33.067, 1541908773067
128, 3289.37, 16784.51, 187500.00, 187500.00, -187500.02, -187500.02, -187500.02, -187500.02, 0.000, 0.000, 0.000, 22:59:33.067, 1541908773067
129, 3143.30, 16514.76, 187500.00, 187500.00, -187500.02, -187500.02, -187500.02, -187500.02, 0.000, 0.000, 0.000, 22:59:33.067, 1541908773067
130, 3213.44, 16356.85, 187500.00, 187500.00, -187500.02, -187500.02, -187500.02, -187500.02, 0.000, 0.000, 0.000, 22:59:33.067, 1541908773067
131, 3447.76, 16756.90, 187500.00, 187500.00, -187500.02, -187500.02, -187500.02, -187500.02, 0.000, 0.000, 0.000, 22:59:33.068, 1541908773068
132, 3327.44, 16819.64, 187500.00, 187500.00, -187500.02, -187500.02, -187500.02, -187500.02, 0.000, 0.000, 0.000, 22:59:33.068, 1541908773068
133, 3158.95, 16568.88, 187500.00, 187500.00, -187500.02, -187500.02, -187500.02, -187500.02, 0.000, 0.000, 0.000, 22:59:33.068, 1541908773068
134, 3167.71, 16336.53, 187500.00, 187500.00, -187500.02, -187500.02, -187500.02, -187500.02, 0.000, 0.000, 0.000, 22:59:33.068, 1541908773068
135, 3436.83, 16698.00, 187500.00, 187500.00, -187500.02, -187500.02, -187500.02, -187500.02, 0.058, 0.970, 0.260, 22:59:33.068, 1541908773068
136, 3362.19, 16847.96, 187500.00, 187500.00, -187500.02, -187500.02, -187500.02, -187500.02, 0.000, 0.000, 0.000, 22:59:33.068, 1541908773068
137, 3178.82, 16624.73, 187500.00, 187500.00, -187500.02, -187500.02, -187500.02, -187500.02, 0.000, 0.000, 0.000, 22:59:33.068, 1541908773068
138, 3130.65, 16337.47, 187500.00, 187500.00, -187500.02, -187500.02, -187500.02, -187500.02, 0.000, 0.000, 0.000, 22:59:33.068, 1541908773068
139, 3389.22, 16605.54, 187500.00, 187500.00, -187500.02, -187500.02, -187500.02, -187500.02, 0.000, 0.000, 0.000, 22:59:33.068, 1541908773068
140, 3385.91, 16853.84, 187500.00, 187500.00, -187500.02, -187500.02, -187500.02, -187500.02, 0.000, 0.000, 0.000, 22:59:33.068, 1541908773068
141, 3201.82, 16674.71, 187500.00, 187500.00, -187500.02, -187500.02, -187500.02, -187500.02, 0.000, 0.000, 0.000, 22:59:33.068, 1541908773068
142, 3121.47, 16372.03, 187500.00, 187500.00, -187500.02, -187500.02, -187500.02, -187500.02, 0.000, 0.000, 0.000, 22:59:33.069, 1541908773069
143, 3346.08, 16525.94, 187500.00, 187500.00, -187500.02, -187500.02, -187500.02, -187500.02, 0.000, 0.000, 0.000, 22:59:33.069, 1541908773069
144, 3427.17, 16865.62, 187500.00, 187500.00, -187500.02, -187500.02, -187500.02, -187500.02, 0.066, 0.954, 0.256, 22:59:33.069, 1541908773069
145, 3253.61, 16744.79, 187500.00, 187500.00, -187500.02, -187500.02, -187500.02, -187500.02, 0.000, 0.000, 0.000, 22:59:33.069, 1541908773069
146, 3135.10, 16433.00, 187500.00, 187500.00, -187500.02, -187500.02, -187500.02, -187500.02, 0.000, 0.000, 0.000, 22:59:33.069, 1541908773069
147, 3312.77, 16461.52, 187500.00, 187500.00, -187500.02, -187500.02, -187500.02, -187500.02, 0.000, 0.000, 0.000, 22:59:33.069, 1541908773069
148, 3457.86, 16854.20, 187500.00, 187500.00, -187500.02, -187500.02, -187500.02, -187500.02, 0.000, 0.000, 0.000, 22:59:33.069, 1541908773069
149, 3296.57, 16795.62, 187500.00, 187500.00, -187500.02, -187500.02, -187500.02, -187500.02, 0.000, 0.000, 0.000, 22:59:33.069, 1541908773069
150, 3155.02, 16493.04, 187500.00, 187500.00, -187500.02, -187500.02, -187500.02, -187500.02, 0.000, 0.000, 0.000, 22:59:33.069, 1541908773069
151, 3261.83, 16389.77, 187500.00, 187500.00, -187500.02, -187500.02, -187500.02, -187500.02, 0.000, 0.000, 0.000, 22:59:33.069, 1541908773069
152, 3465.44, 16800.20, 187500.00, 187500.00, -187500.02, -187500.02, -187500.02, -187500.02, 0.000, 0.000, 0.000, 22:59:33.069, 1541908773069
153, 3333.87, 16812.40, 187500.00, 187500.00, -187500.02, -187500.02, -187500.02, -187500.02, 0.000, 0.000, 0.000, 22:59:33.069, 1541908773069
154, 3171.42, 16527.21, 187500.00, 187500.00, -187500.02, -187500.02, -187500.02, -187500.02, 0.080, 0.964, 0.250, 22:59:33.070, 1541908773070
155, 3219.28, 16339.88, 187500.00, 187500.00, -187500.02, -187500.02, -187500.02, -187500.02, 0.000, 0.000, 0.000, 22:59:33.070, 1541908773070
156, 3485.64, 16763.43, 187500.00, 187500.00, -187500.02, -187500.02, -187500.02, -187500.02, 0.000, 0.000, 0.000, 22:59:33.070, 1541908773070
157, 3390.16, 16860.72, 187500.00, 187500.00, -187500.02, -187500.02, -187500.02, -187500.02, 0.000, 0.000, 0.000, 22:59:33.070, 1541908773070
158, 3209.46, 16603.12, 187500.00, 187500.00, -187500.02, -187500.02, -187500.02, -187500.02, 0.000, 0.000, 0.000, 22:59:33.070, 1541908773070
159, 3199.81, 16346.25, 187500.00, 187500.00, -187500.02, -187500.02, -187500.02, -187500.02, 0.000, 0.000, 0.000, 22:59:33.071, 1541908773071
160, 3466.44, 16691.41, 187500.00, 187500.00, -187500.02, -187500.02, -187500.02, -187500.02, 0.000, 0.000, 0.000, 22:59:33.071, 1541908773071
161, 3412.73, 16869.38, 187500.00, 187500.00, -187500.02, -187500.02, -187500.02, -187500.02, 0.000, 0.000, 0.000, 22:59:33.071, 1541908773071
162, 3225.09, 16652.25, 187500.00, 187500.00, -187500.02, -187500.02, -187500.02, -187500.02, 0.000, 0.000, 0.000, 22:59:33.071, 1541908773071
163, 3170.51, 16355.71, 187500.00, 187500.00, -187500.02, -187500.02, -187500.02, -187500.02, 0.000, 0.000, 0.000, 22:59:33.071, 1541908773071
164, 3432.76, 16598.05, 187500.00, 187500.00, -187500.02, -187500.02, -187500.02, -187500.02, 0.092, 0.968, 0.242, 22:59:33.071, 1541908773071
165, 3437.07, 16862.11, 187500.00, 187500.00, -187500.02, -187500.02, -187500.02, -187500.02, 0.000, 0.000, 0.000, 22:59:33.071, 1541908773071
166, 3243.77, 16688.55, 187500.00, 187500.00, -187500.02, -187500.02, -187500.02, -187500.02, 0.000, 0.000, 0.000, 22:59:33.071, 1541908773071
167, 3159.75, 16386.67, 187500.00, 187500.00, -187500.02, -187500.02, -187500.02, -187500.02, 0.000, 0.000, 0.000, 22:59:33.071, 1541908773071
168, 3382.51, 16516.13, 187500.00, 187500.00, -187500.02, -187500.02, -187500.02, -187500.02, 0.000, 0.000, 0.000, 22:59:33.071, 1541908773071
169, 3468.16, 16867.18, 187500.00, 187500.00, -187500.02, -187500.02, -187500.02, -187500.02, 0.000, 0.000, 0.000, 22:59:33.071, 1541908773071
170, 3281.21, 16743.45, 187500.00, 187500.00, -187500.02, -187500.02, -187500.02, -187500.02, 0.000, 0.000, 0.000, 22:59:33.071, 1541908773071
171, 3167.04, 16440.91, 187500.00, 187500.00, -187500.02, -187500.02, -187500.02, -187500.02, 0.000, 0.000, 0.000, 22:59:33.072, 1541908773072
172, 3324.24, 16436.76, 187500.00, 187500.00, -187500.02, -187500.02, -187500.02, -187500.02, 0.000, 0.000, 0.000, 22:59:33.072, 1541908773072
173, 3485.26, 16845.68, 187500.00, 187500.00, -187500.02, -187500.02, -187500.02, -187500.02, 0.000, 0.000, 0.000, 22:59:33.072, 1541908773072
174, 3327.19, 16796.55, 187500.00, 187500.00, -187500.02, -187500.02, -187500.02, -187500.02, 0.094, 0.974, 0.248, 22:59:33.072, 1541908773072
175, 3182.91, 16502.85, 187500.00, 187500.00, -187500.02, -187500.02, -187500.02, -187500.02, 0.000, 0.000, 0.000, 22:59:33.072, 1541908773072
176, 3272.72, 16379.47, 187500.00, 187500.00, -187500.02, -187500.02, -187500.02, -187500.02, 0.000, 0.000, 0.000, 22:59:33.072, 1541908773072
177, 3484.66, 16798.14, 187500.00, 187500.00, -187500.02, -187500.02, -187500.02, -187500.02, 0.000, 0.000, 0.000, 22:59:33.072, 1541908773072
178, 3351.22, 16828.31, 187500.00, 187500.00, -187500.02, -187500.02, -187500.02, -187500.02, 0.000, 0.000, 0.000, 22:59:33.072, 1541908773072
179, 3183.02, 16552.83, 187500.00, 187500.00, -187500.02, -187500.02, -187500.02, -187500.02, 0.000, 0.000, 0.000, 22:59:33.072, 1541908773072
180, 3228.35, 16353.63, 187500.00, 187500.00, -187500.02, -187500.02, -187500.02, -187500.02, 0.000, 0.000, 0.000, 22:59:33.072, 1541908773072
181, 3484.50, 16742.64, 187500.00, 187500.00, -187500.02, -187500.02, -187500.02, -187500.02, 0.000, 0.000, 0.000, 22:59:33.072, 1541908773072
182, 3390.56, 16855.27, 187500.00, 187500.00, -187500.02, -187500.02, -187500.02, -187500.02, 0.000, 0.000, 0.000, 22:59:33.072, 1541908773072
183, 3208.66, 16606.03, 187500.00, 187500.00, -187500.02, -187500.02, -187500.02, -187500.02, 0.000, 0.000, 0.000, 22:59:33.073, 1541908773073
184, 3188.83, 16338.63, 187500.00, 187500.00, -187500.02, -187500.02, -187500.02, -187500.02, 0.082, 0.976, 0.250, 22:59:33.073, 1541908773073
185, 3458.95, 16662.85, 187500.00, 187500.00, -187500.02, -187500.02, -187500.02, -187500.02, 0.000, 0.000, 0.000, 22:59:33.073, 1541908773073
186, 3424.18, 16867.97, 187500.00, 187500.00, -187500.02, -187500.02, -187500.02, -187500.02, 0.000, 0.000, 0.000, 22:59:33.073, 1541908773073
187, 3236.60, 16662.13, 187500.00, 187500.00, -187500.02, -187500.02, -187500.02, -187500.02, 0.000, 0.000, 0.000, 22:59:33.073, 1541908773073
188, 3163.51, 16354.73, 187500.00, 187500.00, -187500.02, -187500.02, -187500.02, -187500.02, 0.000, 0.000, 0.000, 22:59:33.073, 1541908773073
189, 3406.85, 16563.40, 187500.00, 187500.00, -187500.02, -187500.02, -187500.02, -187500.02, 0.000, 0.000, 0.000, 22:59:33.073, 1541908773073
190, 3433.76, 16855.65, 187500.00, 187500.00, -187500.02, -187500.02, -187500.02, -187500.02, 0.000, 0.000, 0.000, 22:59:33.073, 1541908773073
191, 3251.08, 16703.50, 187500.00, 187500.00, -187500.02, -187500.02, -187500.02, -187500.02, 0.000, 0.000, 0.000, 22:59:33.073, 1541908773073
192, 3162.35, 16399.16, 187500.00, 187500.00, -187500.02, -187500.02, -187500.02, -187500.02, 0.000, 0.000, 0.000, 22:59:33.074, 1541908773074
193, 3368.54, 16492.75, 187500.00, 187500.00, -187500.02, -187500.02, -187500.02, -187500.02, 0.074, 0.976, 0.262, 22:59:33.074, 1541908773074
194, 3481.69, 16867.36, 187500.00, 187500.00, -187500.02, -187500.02, -187500.02, -187500.02, 0.000, 0.000, 0.000, 22:59:33.074, 1541908773074
195, 3312.84, 16780.10, 187500.00, 187500.00, -187500.02, -187500.02, -187500.02, -187500.02, 0.000, 0.000, 0.000, 22:59:33.074, 1541908773074
196, 3174.53, 16484.57, 187500.00, 187500.00, -187500.02, -187500.02, -187500.02, -187500.02, 0.000, 0.000, 0.000, 22:59:33.074, 1541908773074
197, 3290.82, 16433.54, 187500.00, 187500.00, -187500.02, -187500.02, -187500.02, -187500.02, 0.000, 0.000, 0.000, 22:59:33.074, 1541908773074
198, 3450.77, 16832.34, 187500.00, 187500.00, -187500.02, -187500.02, -187500.02, -187500.02, 0.000, 0.000, 0.000, 22:59:33.074, 1541908773074
199, 3275.89, 16790.27, 187500.00, 187500.00, -187500.02, -187500.02, -187500.02, -187500.02, 0.000, 0.000, 0.000, 22:59:33.074, 1541908773074
200, 3109.08, 16488.55, 187500.00, 187500.00, -187500.02, -187500.02, -187500.02, -187500.02, 0.000, 0.000, 0.000, 22:59:33.074, 1541908773074
201, 3167.94, 16324.17, 187500.00, 187500.00, -187500.02, -187500.02, -187500.02, -187500.02, 0.000, 0.000, 0.000, 22:59:33.074, 1541908773074
202, 3383.94, 16737.90, 187500.00, 187500.00, -187500.02, -187500.02, -187500.02, -187500.02, 0.000, 0.000, 0.000, 22:59:33.074, 1541908773074
203, 3228.80, 16771.72, 187500.00, 187500.00, -187500.02, -187500.02, -187500.02, -187500.02, 0.068, 0.960, 0.256, 22:59:33.075, 1541908773075
204, 3034.45, 16488.39, 187500.00, 187500.00, -187500.02, -187500.02, -187500.02, -187500.02, 0.000, 0.000, 0.000, 22:59:33.075, 1541908773075
205, 3051.33, 16264.11, 187500.00, 187500.00, -187500.02, -187500.02, -187500.02, -187500.02, 0.000, 0.000, 0.000, 22:59:33.075, 1541908773075
206, 3323.61, 16650.55, 187500.00, 187500.00, -187500.02, -187500.02, -187500.02, -187500.02, 0.000, 0.000, 0.000, 22:59:33.075, 1541908773075
207, 3253.74, 16799.64, 187500.00, 187500.00, -187500.02, -187500.02, -187500.02, -187500.02, 0.000, 0.000, 0.000, 22:59:33.075, 1541908773075
208, 3062.01, 16562.35, 187500.00, 187500.00, -187500.02, -187500.02, -187500.02, -187500.02, 0.000, 0.000, 0.000, 22:59:33.075, 1541908773075
209, 3021.53, 16270.64, 187500.00, 187500.00, -187500.02, -187500.02, -187500.02, -187500.02, 0.000, 0.000, 0.000, 22:59:33.075, 1541908773075
210, 3304.68, 16580.14, 187500.00, 187500.00, -187500.02, -187500.02, -187500.02, -187500.02, 0.000, 0.000, 0.000, 22:59:33.075, 1541908773075
211, 3291.52, 16818.79, 187500.00, 187500.00, -187500.02, -187500.02, -187500.02, -187500.02, 0.000, 0.000, 0.000, 22:59:33.075, 1541908773075
212, 3100.37, 16622.39, 187500.00, 187500.00, -187500.02, -187500.02, -187500.02, -187500.02, 0.000, 0.000, 0.000, 22:59:33.075, 1541908773075
213, 3020.50, 16310.31, 187500.00, 187500.00, -187500.02, -187500.02, -187500.02, -187500.02, 0.074, 0.960, 0.258, 22:59:33.075, 1541908773075
214, 3269.19, 16498.92, 187500.00, 187500.00, -187500.02, -187500.02, -187500.02, -187500.02, 0.000, 0.000, 0.000, 22:59:33.076, 1541908773076
215, 3315.41, 16814.55, 187500.00, 187500.00, -187500.02, -187500.02, -187500.02, -187500.02, 0.000, 0.000, 0.000, 22:59:33.076, 1541908773076
216, 3127.68, 16668.75, 187500.00, 187500.00, -187500.02, -187500.02, -187500.02, -187500.02, 0.000, 0.000, 0.000, 22:59:33.076, 1541908773076
217, 3011.34, 16340.96, 187500.00, 187500.00, -187500.02, -187500.02, -187500.02, -187500.02, 0.000, 0.000, 0.000, 22:59:33.076, 1541908773076
218, 3186.64, 16384.12, 187500.00, 187500.00, -187500.02, -187500.02, -187500.02, -187500.02, 0.000, 0.000, 0.000, 22:59:33.076, 1541908773076
219, 3314.52, 16778.16, 187500.00, 187500.00, -187500.02, -187500.02, -187500.02, -187500.02, 0.000, 0.000, 0.000, 22:59:33.076, 1541908773076
220, 3130.18, 16686.49, 187500.00, 187500.00, -187500.02, -187500.02, -187500.02, -187500.02, 0.000, 0.000, 0.000, 22:59:33.076, 1541908773076
221, 3000.54, 16381.12, 187500.00, 187500.00, -187500.02, -187500.02, -187500.02, -187500.02, 0.000, 0.000, 0.000, 22:59:33.077, 1541908773077
222, 3136.96, 16317.42, 187500.00, 187500.00, -187500.02, -187500.02, -187500.02, -187500.02, 0.000, 0.000, 0.000, 22:59:33.078, 1541908773078
223, 3334.79, 16741.25, 187500.00, 187500.00, -187500.02, -187500.02, -187500.02, -187500.02, 0.086, 0.946, 0.252, 22:59:33.079, 1541908773079
224, 3186.29, 16735.06, 187500.00, 187500.00, -187500.02, -187500.02, -187500.02, -187500.02, 0.000, 0.000, 0.000, 22:59:33.080, 1541908773080
225, 3020.23, 16437.36, 187500.00, 187500.00, -187500.02, -187500.02, -187500.02, -187500.02, 0.000, 0.000, 0.000, 22:59:33.080, 1541908773080
226, 3079.96, 16262.37, 187500.00, 187500.00, -187500.02, -187500.02, -187500.02, -187500.02, 0.000, 0.000, 0.000, 22:59:33.080, 1541908773080
227, 3324.80, 16674.51, 187500.00, 187500.00, -187500.02, -187500.02, -187500.02, -187500.02, 0.000, 0.000, 0.000, 22:59:33.080, 1541908773080
228, 3223.84, 16761.44, 187500.00, 187500.00, -187500.02, -187500.02, -187500.02, -187500.02, 0.000, 0.000, 0.000, 22:59:33.080, 1541908773080
229, 3048.13, 16497.80, 187500.00, 187500.00, -187500.02, -187500.02, -187500.02, -187500.02, 0.000, 0.000, 0.000, 22:59:33.080, 1541908773080
230, 3030.20, 16231.55, 187500.00, 187500.00, -187500.02, -187500.02, -187500.02, -187500.02, 0.000, 0.000, 0.000, 22:59:33.080, 1541908773080
231, 3296.37, 16593.17, 187500.00, 187500.00, -187500.02, -187500.02, -187500.02, -187500.02, 0.000, 0.000, 0.000, 22:59:33.080, 1541908773080
232, 3240.09, 16758.71, 187500.00, 187500.00, -187500.02, -187500.02, -187500.02, -187500.02, 0.068, 0.976, 0.252, 22:59:33.080, 1541908773080
233, 3063.84, 16534.68, 187500.00, 187500.00, -187500.02, -187500.02, -187500.02, -187500.02, 0.000, 0.000, 0.000, 22:59:33.080, 1541908773080
234, 3019.30, 16244.17, 187500.00, 187500.00, -187500.02, -187500.02, -187500.02, -187500.02, 0.000, 0.000, 0.000, 22:59:33.080, 1541908773080
235, 3305.98, 16536.45, 187500.00, 187500.00, -187500.02, -187500.02, -187500.02, -187500.02, 0.000, 0.000, 0.000, 22:59:33.080, 1541908773080
236, 3313.78, 16797.54, 187500.00, 187500.00, -187500.02, -187500.02, -187500.02, -187500.02, 0.000, 0.000, 0.000, 22:59:33.081, 1541908773081
237, 3137.94, 16610.38, 187500.00, 187500.00, -187500.02, -187500.02, -187500.02, -187500.02, 0.000, 0.000, 0.000, 22:59:33.081, 1541908773081
238, 3061.94, 16298.06, 187500.00, 187500.00, -187500.02, -187500.02, -187500.02, -187500.02, 0.000, 0.000, 0.000, 22:59:33.081, 1541908773081
239, 3293.04, 16455.20, 187500.00, 187500.00, -187500.02, -187500.02, -187500.02, -187500.02, 0.000, 0.000, 0.000, 22:59:33.081, 1541908773081
240, 3363.29, 16799.71, 187500.00, 187500.00, -187500.02, -187500.02, -187500.02, -187500.02, 0.000, 0.000, 0.000, 22:59:33.081, 1541908773081
241, 3173.01, 16657.84, 187500.00, 187500.00, -187500.02, -187500.02, -187500.02, -187500.02, 0.000, 0.000, 0.000, 22:59:33.548, 1541908773548
242, 3082.04, 16363.29, 187500.00, 187500.00, -187500.02, -187500.02, -187500.02, -187500.02, 0.074, 0.952, 0.252, 22:59:33.548, 1541908773548
243, 3270.48, 16399.45, 187500.00, 187500.00, -187500.02, -187500.02, -187500.02, -187500.02, 0.000, 0.000, 0.000, 22:59:33.549, 1541908773549
244, 3396.08, 16804.55, 187500.00, 187500.00, -187500.02, -187500.02, -187500.02, -187500.02, 0.000, 0.000, 0.000, 22:59:33.549, 1541908773549
245, 3223.10, 16743.98, 187500.00, 187500.00, -187500.02, -187500.02, -187500.02, -187500.02, 0.000, 0.000, 0.000, 22:59:33.549, 1541908773549
246, 3070.95, 16428.76, 187500.00, 187500.00, -187500.02, -187500.02, -187500.02, -187500.02, 0.000, 0.000, 0.000, 22:59:33.549, 1541908773549
247, 3178.33, 16324.44, 187500.00, 187500.00, -187500.02, -187500.02, -187500.02, -187500.02, 0.000, 0.000, 0.000, 22:59:33.549, 1541908773549
248, 3425.96, 16774.07, 187500.00, 187500.00, -187500.02, -187500.02, -187500.02, -187500.02, 0.000, 0.000, 0.000, 22:59:33.549, 1541908773549
249, 3281.41, 16786.85, 187500.00, 187500.00, -187500.02, -187500.02, -187500.02, -187500.02, 0.000, 0.000, 0.000, 22:59:33.549, 1541908773549
250, 3095.78, 16505.69, 187500.00, 187500.00, -187500.02, -187500.02, -187500.02, -187500.02, 0.000, 0.000, 0.000, 22:59:33.550, 1541908773550
251, 3124.22, 16303.52, 187500.00, 187500.00, -187500.02, -187500.02, -187500.02, -187500.02, 0.000, 0.000, 0.000, 22:59:33.550, 1541908773550
252, 3369.37, 16697.18, 187500.00, 187500.00, -187500.02, -187500.02, -187500.02, -187500.02, 0.076, 0.926, 0.234, 22:59:33.550, 1541908773550
253, 3272.56, 16801.98, 187500.00, 187500.00, -187500.02, -187500.02, -187500.02, -187500.02, 0.000, 0.000, 0.000, 22:59:33.550, 1541908773550
254, 3099.00, 16553.75, 187500.00, 187500.00, -187500.02, -187500.02, -187500.02, -187500.02, 0.000, 0.000, 0.000, 22:59:33.550, 1541908773550
255, 3086.08, 16281.30, 187500.00, 187500.00, -187500.02, -187500.02, -187500.02, -187500.02, 0.000, 0.000, 0.000, 22:59:33.550, 1541908773550
0, 3367.65, 16639.49, 187500.00, 187500.00, -187500.02, -187500.02, -187500.02, -187500.02, 0.000, 0.000, 0.000, 22:59:33.550, 1541908773550
1, 3304.55, 16819.82, 187500.00, 187500.00, -187500.02, -187500.02, -187500.02, -187500.02, 0.000, 0.000, 0.000, 22:59:33.550, 1541908773550
2, 3101.95, 16579.38, 187500.00, 187500.00, -187500.02, -187500.02, -187500.02, -187500.02, 0.000, 0.000, 0.000, 22:59:33.550, 1541908773550
3, 3059.40, 16281.30, 187500.00, 187500.00, -187500.02, -187500.02, -187500.02, -187500.02, 0.000, 0.000, 0.000, 22:59:33.550, 1541908773550
4, 3317.18, 16518.45, 187500.00, 187500.00, -187500.02, -187500.02, -187500.02, -187500.02, 0.000, 0.000, 0.000, 22:59:33.551, 1541908773551
5, 3325.98, 16792.26, 187500.00, 187500.00, -187500.02, -187500.02, -187500.02, -187500.02, 0.000, 0.000, 0.000, 22:59:33.551, 1541908773551
6, 3140.73, 16622.54, 187500.00, 187500.00, -187500.02, -187500.02, -187500.02, -187500.02, 0.094, 0.978, 0.248, 22:59:33.551, 1541908773551
7, 3034.72, 16294.78, 187500.00, 187500.00, -187500.02, -187500.02, -187500.02, -187500.02, 0.000, 0.000, 0.000, 22:59:33.551, 1541908773551
8, 3253.01, 16416.55, 187500.00, 187500.00, -187500.02, -187500.02, -187500.02, -187500.02, 0.000, 0.000, 0.000, 22:59:33.551, 1541908773551
9, 3376.34, 16804.55, 187500.00, 187500.00, -187500.02, -187500.02, -187500.02, -187500.02, 0.000, 0.000, 0.000, 22:59:33.551, 1541908773551
10, 3185.75, 16683.47, 187500.00, 187500.00, -187500.02, -187500.02, -187500.02, -187500.02, 0.000, 0.000, 0.000, 22:59:33.551, 1541908773551
11, 3035.95, 16344.40, 187500.00, 187500.00, -187500.02, -187500.02, -187500.02, -187500.02, 0.000, 0.000, 0.000, 22:59:33.551, 1541908773551
12, 3197.71, 16326.18, 187500.00, 187500.00, -187500.02, -187500.02, -187500.02, -187500.02, 0.000, 0.000, 0.000, 22:59:33.551, 1541908773551
13, 3360.65, 16740.54, 187500.00, 187500.00, -187500.02, -187500.02, -187500.02, -187500.02, 0.000, 0.000, 0.000, 22:59:33.551, 1541908773551
14, 3179.09, 16698.32, 187500.00, 187500.00, -187500.02, -187500.02, -187500.02, -187500.02, 0.000, 0.000, 0.000, 22:59:33.552, 1541908773552
15, 3018.74, 16390.78, 187500.00, 187500.00, -187500.02, -187500.02, -187500.02, -187500.02, 0.000, 0.000, 0.000, 22:59:33.552, 1541908773552
16, 3116.08, 16261.70, 187500.00, 187500.00, -187500.02, -187500.02, -187500.02, -187500.02, 0.080, 0.970, 0.240, 22:59:33.552, 1541908773552
17, 3346.79, 16701.36, 187500.00, 187500.00, -187500.02, -187500.02, -187500.02, -187500.02, 0.000, 0.000, 0.000, 22:59:33.552, 1541908773552
18, 3204.12, 16728.65, 187500.00, 187500.00, -187500.02, -187500.02, -187500.02, -187500.02, 0.000, 0.000, 0.000, 22:59:33.552, 1541908773552
19, 3027.54, 16436.00, 187500.00, 187500.00, -187500.02, -187500.02, -187500.02, -187500.02, 0.000, 0.000, 0.000, 22:59:33.552, 1541908773552
20, 3041.60, 16210.92, 187500.00, 187500.00, -187500.02, -187500.02, -187500.02, -187500.02, 0.000, 0.000, 0.000, 22:59:33.552, 1541908773552
21, 3312.37, 16614.34, 187500.00, 187500.00, -187500.02, -187500.02, -187500.02, -187500.02, 0.000, 0.000, 0.000, 22:59:33.552, 1541908773552
22, 3230.03, 16745.81, 187500.00, 187500.00, -187500.02, -187500.02, -187500.02, -187500.02, 0.000, 0.000, 0.000, 22:59:33.552, 1541908773552
23, 3043.08, 16503.92, 187500.00, 187500.00, -187500.02, -187500.02, -187500.02, -187500.02, 0.000, 0.000, 0.000, 22:59:33.552, 1541908773552
24, 3016.50, 16228.89, 187500.00, 187500.00, -187500.02, -187500.02, -187500.02, -187500.02, 0.000, 0.000, 0.000, 22:59:33.552, 1541908773552
25, 3277.57, 16549.10, 187500.00, 187500.00, -187500.02, -187500.02, -187500.02, -187500.02, 0.076, 0.958, 0.232, 22:59:33.552, 1541908773552
26, 3243.93, 16763.61, 187500.00, 187500.00, -187500.02, -187500.02, -187500.02, -187500.02, 0.000, 0.000, 0.000, 22:59:33.552, 1541908773552
27, 3070.97, 16563.38, 187500.00, 187500.00, -187500.02, -187500.02, -187500.02, -187500.02, 0.000, 0.000, 0.000, 22:59:33.553, 1541908773553
28, 2997.44, 16246.16, 187500.00, 187500.00, -187500.02, -187500.02, -187500.02, -187500.02, 0.000, 0.000, 0.000, 22:59:33.553, 1541908773553
29, 3242.57, 16452.20, 187500.00, 187500.00, -187500.02, -187500.02, -187500.02, -187500.02, 0.000, 0.000, 0.000, 22:59:33.553, 1541908773553
30, 3278.42, 16759.87, 187500.00, 187500.00, -187500.02, -187500.02, -187500.02, -187500.02, 0.000, 0.000, 0.000, 22:59:33.553, 1541908773553
31, 3079.96, 16596.86, 187500.00, 187500.00, -187500.02, -187500.02, -187500.02, -187500.02, 0.000, 0.000, 0.000, 22:59:33.553, 1541908773553
32, 2992.47, 16289.41, 187500.00, 187500.00, -187500.02, -187500.02, -187500.02, -187500.02, 0.000, 0.000, 0.000, 22:59:33.553, 1541908773553
33, 3207.59, 16379.04, 187500.00, 187500.00, -187500.02, -187500.02, -187500.02, -187500.02, 0.000, 0.000, 0.000, 22:59:33.553, 1541908773553
34, 3318.88, 16750.49, 187500.00, 187500.00, -187500.02, -187500.02, -187500.02, -187500.02, 0.000, 0.000, 0.000, 22:59:33.553, 1541908773553
35, 3145.14, 16651.96, 187500.00, 187500.00, -187500.02, -187500.02, -187500.02, -187500.02, 0.088, 0.984, 0.252, 22:59:33.553, 1541908773553
36, 3013.10, 16341.34, 187500.00, 187500.00, -187500.02, -187500.02, -187500.02, -187500.02, 0.000, 0.000, 0.000, 22:59:33.553, 1541908773553
37, 3144.76, 16297.51, 187500.00, 187500.00, -187500.02, -187500.02, -187500.02, -187500.02, 0.000, 0.000, 0.000, 22:59:33.553, 1541908773553
38, 3327.19, 16722.52, 187500.00, 187500.00, -187500.02, -187500.02, -187500.02, -187500.02, 0.000, 0.000, 0.000, 22:59:33.553, 1541908773553
39, 3176.83, 16706.16, 187500.00, 187500.00, -187500.02, -187500.02, -187500.02, -187500.02, 0.000, 0.000, 0.000, 22:59:33.553, 1541908773553
40, 3020.99, 16408.53, 187500.00, 187500.00, -187500.02, -187500.02, -187500.02, -187500.02, 0.000, 0.000, 0.000, 22:59:33.554, 1541908773554
41, 3096.28, 16255.78, 187500.00, 187500.00, -187500.02, -187500.02, -187500.02, -187500.02, 0.000, 0.000, 0.000, 22:59:33.554, 1541908773554
42, 3346.75, 16690.63, 187500.00, 187500.00, -187500.02, -187500.02, -187500.02, -187500.02, 0.000, 0.000, 0.000, 22:59:33.554, 1541908773554
43, 3224.86, 16745.19, 187500.00, 187500.00, -187500.02, -187500.02, -187500.02, -187500.02, 0.000, 0.000, 0.000, 22:59:33.554, 1541908773554
44, 3051.68, 16481.97, 187500.00, 187500.00, -187500.02, -187500.02, -187500.02, -187500.02, 0.000, 0.000, 0.000, 22:59:33.554, 1541908773554
45, 3035.05, 16220.88, 187500.00, 187500.00, -187500.02, -187500.02, -187500.02, -187500.02, 0.086, 0.982, 0.262, 22:59:33.554, 1541908773554
46, 3310.11, 16608.37, 187500.00, 187500.00, -187500.02, -187500.02, -187500.02, -187500.02, 0.000, 0.000, 0.000, 22:59:33.554, 1541908773554
47, 3258.39, 16772.03, 187500.00, 187500.00, -187500.02, -187500.02, -187500.02, -187500.02, 0.000, 0.000, 0.000, 22:59:33.554, 1541908773554
48, 3089.44, 16547.60, 187500.00, 187500.00, -187500.02, -187500.02, -187500.02, -187500.02, 0.000, 0.000, 0.000, 22:59:33.554, 1541908773554
49, 3041.31, 16246.95, 187500.00, 187500.00, -187500.02, -187500.02, -187500.02, -187500.02, 0.000, 0.000, 0.000, 22:59:33.554, 1541908773554
50, 3303.77, 16533.79, 187500.00, 187500.00, -187500.02, -187500.02, -187500.02, -187500.02, 0.000, 0.000, 0.000, 22:59:33.554, 1541908773554
51, 3292.30, 16777.20, 187500.00, 187500.00, -187500.02, -187500.02, -187500.02, -187500.02, 0.000, 0.000, 0.000, 22:59:33.554, 1541908773554
52, 3103.94, 16585.46, 187500.00, 187500.00, -187500.02, -187500.02, -187500.02, -187500.02, 0.000, 0.000, 0.000, 22:59:33.554, 1541908773554
53, 3015.61, 16266.73, 187500.00, 187500.00, -187500.02, -187500.02, -187500.02, -187500.02, 0.000, 0.000, 0.000, 22:59:33.555, 1541908773555
54, 3247.95, 16438.32, 187500.00, 187500.00, -187500.02, -187500.02, -187500.02, -187500.02, 0.000, 0.000, 0.000, 22:59:33.555, 1541908773555
55, 3309.24, 16762.96, 187500.00, 187500.00, -187500.02, -187500.02, -187500.02, -187500.02, 0.090, 0.974, 0.264, 22:59:33.555, 1541908773555
56, 3113.22, 16610.61, 187500.00, 187500.00, -187500.02, -187500.02, -187500.02, -187500.02, 0.000, 0.000, 0.000, 22:59:33.555, 1541908773555
57, 3004.23, 16302.87, 187500.00, 187500.00, -187500.02, -187500.02, -187500.02, -187500.02, 0.000, 0.000, 0.000, 22:59:33.555, 1541908773555
58, 3223.57, 16378.08, 187500.00, 187500.00, -187500.02, -187500.02, -187500.02, -187500.02, 0.000, 0.000, 0.000, 22:59:33.555, 1541908773555
59, 3354.28, 16756.90, 187500.00, 187500.00, -187500.02, -187500.02, -187500.02, -187500.02, 0.000, 0.000, 0.000, 22:59:33.555, 1541908773555
60, 3181.93, 16677.42, 187500.00, 187500.00, -187500.02, -187500.02, -187500.02, -187500.02, 0.000, 0.000, 0.000, 22:59:33.555, 1541908773555
61, 3027.16, 16353.00, 187500.00, 187500.00, -187500.02, -187500.02, -187500.02, -187500.02, 0.000, 0.000, 0.000, 22:59:33.555, 1541908773555
62, 3151.33, 16274.93, 187500.00, 187500.00, -187500.02, -187500.02, -187500.02, -187500.02, 0.000, 0.000, 0.000, 22:59:33.555, 1541908773555
63, 3355.49, 16707.55, 187500.00, 187500.00, -187500.02, -187500.02, -187500.02, -187500.02, 0.000, 0.000, 0.000, 22:59:33.555, 1541908773555
64, 3217.00, 16712.89, 187500.00, 187500.00, -187500.02, -187500.02, -187500.02, -187500.02, 0.080, 0.972, 0.268, 22:59:33.555, 1541908773555
65, 3056.85, 16426.77, 187500.00, 187500.00, -187500.02, -187500.02, -187500.02, -187500.02, 0.000, 0.000, 0.000, 22:59:33.555, 1541908773555
66, 3102.73, 16236.35, 187500.00, 187500.00, -187500.02, -187500.02, -187500.02, -187500.02, 0.000, 0.000, 0.000, 22:59:33.555, 1541908773555
67, 3356.65, 16655.22, 187500.00, 187500.00, -187500.02, -187500.02, -187500.02, -187500.02, 0.000, 0.000, 0.000, 22:59:33.556, 1541908773556
68, 3230.81, 16729.88, 187500.00, 187500.00, -187500.02, -187500.02, -187500.02, -187500.02, 0.000, 0.000, 0.000, 22:59:33.556, 1541908773556
69, 3036.35, 16456.47, 187500.00, 187500.00, -187500.02, -187500.02, -187500.02, -187500.02, 0.000, 0.000, 0.000, 22:59:33.556, 1541908773556
70, 3040.08, 16203.54, 187500.00, 187500.00, -187500.02, -187500.02, -187500.02, -187500.02, 0.000, 0.000, 0.000, 22:59:33.556, 1541908773556
71, 3332.20, 16579.43, 187500.00, 187500.00, -187500.02, -187500.02, -187500.02, -187500.02, 0.000, 0.000, 0.000, 22:59:33.556, 1541908773556
72, 3266.75, 16743.71, 187500.00, 187500.00, -187500.02, -187500.02, -187500.02, -187500.02, 0.000, 0.000, 0.000, 22:59:33.556, 1541908773556
73, 3073.45, 16517.36, 187500.00, 187500.00, -187500.02, -187500.02, -187500.02, -187500.02, 0.000, 0.000, 0.000, 22:59:33.556, 1541908773556
74, 3027.01, 16230.36, 187500.00, 187500.00, -187500.02, -187500.02, -187500.02, -187500.02, 0.084, 0.964, 0.252, 22:59:33.556, 1541908773556
75, 3289.82, 16492.14, 187500.00, 187500.00, -187500.02, -187500.02, -187500.02, -187500.02, 0.000, 0.000, 0.000, 22:59:33.556, 1541908773556
76, 3298.04, 16757.30, 187500.00, 187500.00, -187500.02, -187500.02, -187500.02, -187500.02, 0.000, 0.000, 0.000, 22:59:33.556, 1541908773556
77, 3103.52, 16564.94, 187500.00, 187500.00, -187500.02, -187500.02, -187500.02, -187500.02, 0.000, 0.000, 0.000, 22:59:33.556, 1541908773556
78, 3009.57, 16242.01, 187500.00, 187500.00, -187500.02, -187500.02, -187500.02, -187500.02, 0.000, 0.000, 0.000, 22:59:33.556, 1541908773556
79, 3242.14, 16395.56, 187500.00, 187500.00, -187500.02, -187500.02, -187500.02, -187500.02, 0.000, 0.000, 0.000, 22:59:33.557, 1541908773557
80, 3320.75, 16746.35, 187500.00, 187500.00, -187500.02, -187500.02, -187500.02, -187500.02, 0.000, 0.000, 0.000, 22:59:33.557, 1541908773557
81, 3134.07, 16616.22, 187500.00, 187500.00, -187500.02, -187500.02, -187500.02, -187500.02, 0.000, 0.000, 0.000, 22:59:33.557, 1541908773557
82, 3007.96, 16294.51, 187500.00, 187500.00, -187500.02, -187500.02, -187500.02, -187500.02, 0.000, 0.000, 0.000, 22:59:33.557, 1541908773557
83, 3183.42, 16313.71, 187500.00, 187500.00, -187500.02, -187500.02, -187500.02, -187500.02, 0.000, 0.000, 0.000, 22:59:33.557, 1541908773557
84, 3345.77, 16721.90, 187500.00, 187500.00, -187500.02, -187500.02, -187500.02, -187500.02, 0.080, 0.972, 0.246, 22:59:33.557, 1541908773557
85, 3176.16, 16650.06, 187500.00, 187500.00, -187500.02, -187500.02, -187500.02, -187500.02, 0.000, 0.000, 0.000, 22:59:33.557, 1541908773557
86, 3017.33, 16336.89, 187500.00, 187500.00, -187500.02, -187500.02, -187500.02, -187500.02, 0.000, 0.000, 0.000, 22:59:33.558, 1541908773558
87, 3123.86, 16237.65, 187500.00, 187500.00, -187500.02, -187500.02, -187500.02, -187500.02, 0.000, 0.000, 0.000, 22:59:33.558, 1541908773558
88, 3333.78, 16654.08, 187500.00, 187500.00, -187500.02, -187500.02, -187500.02, -187500.02, 0.000, 0.000, 0.000, 22:59:33.558, 1541908773558
89, 3198.96, 16677.24, 187500.00, 187500.00, -187500.02, -187500.02, -187500.02, -187500.02, 0.000, 0.000, 0.000, 22:59:33.558, 1541908773558
90, 3045.05, 16411.41, 187500.00, 187500.00, -187500.02, -187500.02, -187500.02, -187500.02, 0.000, 0.000, 0.000, 22:59:33.558, 1541908773558
91, 3076.90, 16207.34, 187500.00, 187500.00, -187500.02, -187500.02, -187500.02, -187500.02, 0.000, 0.000, 0.000, 22:59:33.558, 1541908773558
92, 3334.61, 16608.60, 187500.00, 187500.00, -187500.02, -187500.02, -187500.02, -187500.02, 0.000, 0.000, 0.000, 22:59:33.558, 1541908773558
93, 3248.38, 16721.88, 187500.00, 187500.00, -187500.02, -187500.02, -187500.02, -187500.02, 0.000, 0.000, 0.000, 22:59:33.558, 1541908773558
94, 3065.36, 16466.80, 187500.00, 187500.00, -187500.02, -187500.02, -187500.02, -187500.02, 0.076, 0.980, 0.232, 22:59:33.558, 1541908773558
95, 3044.53, 16193.15, 187500.00, 187500.00, -187500.02, -187500.02, -187500.02, -187500.02, 0.000, 0.000, 0.000, 22:59:33.558, 1541908773558
96, 3306.85, 16524.29, 187500.00, 187500.00, -187500.02, -187500.02, -187500.02, -187500.02, 0.000, 0.000, 0.000, 22:59:33.558, 1541908773558
97, 3257.74, 16720.91, 187500.00, 187500.00, -187500.02, -187500.02, -187500.02, -187500.02, 0.000, 0.000, 0.000, 22:59:33.558, 1541908773558
98, 3057.67, 16495.14, 187500.00, 187500.00, -187500.02, -187500.02, -187500.02, -187500.02, 0.000, 0.000, 0.000, 22:59:33.558, 1541908773558
99, 3002.53, 16207.34, 187500.00, 187500.00, -187500.02, -187500.02, -187500.02, -187500.02, 0.000, 0.000, 0.000, 22:59:33.558, 1541908773558
100, 3257.14, 16436.58, 187500.00, 187500.00, -187500.02, -187500.02, -187500.02, -187500.02, 0.000, 0.000, 0.000, 22:59:33.559, 1541908773559
101, 3307.66, 16742.08, 187500.00, 187500.00, -187500.02, -187500.02, -187500.02, -187500.02, 0.000, 0.000, 0.000, 22:59:33.559, 1541908773559
102, 3127.81, 16588.50, 187500.00, 187500.00, -187500.02, -187500.02, -187500.02, -187500.02, 0.000, 0.000, 0.000, 22:59:33.559, 1541908773559
103, 3011.16, 16250.01, 187500.00, 187500.00, -187500.02, -187500.02, -187500.02, -187500.02, 0.000, 0.000, 0.000, 22:59:33.559, 1541908773559
104, 3213.15, 16349.70, 187500.00, 187500.00, -187500.02, -187500.02, -187500.02, -187500.02, 0.080, 0.988, 0.228, 22:59:33.559, 1541908773559
105, 3317.98, 16722.52, 187500.00, 187500.00, -187500.02, -187500.02, -187500.02, -187500.02, 0.000, 0.000, 0.000, 22:59:34.027, 1541908774027
106, 3122.94, 16602.83, 187500.00, 187500.00, -187500.02, -187500.02, -187500.02, -187500.02, 0.000, 0.000, 0.000, 22:59:34.027, 1541908774027
107, 2987.62, 16288.23, 187500.00, 187500.00, -187500.02, -187500.02, -187500.02, -187500.02, 0.000, 0.000, 0.000, 22:59:34.027, 1541908774027
108, 3178.55, 16301.42, 187500.00, 187500.00, -187500.02, -187500.02, -187500.02, -187500.02, 0.000, 0.000, 0.000, 22:59:34.027, 1541908774027
109, 3350.15, 16715.21, 187500.00, 187500.00, -187500.02, -187500.02, -187500.02, -187500.02, 0.000, 0.000, 0.000, 22:59:34.028, 1541908774028
110, 3166.77, 16657.10, 187500.00, 187500.00, -187500.02, -187500.02, -187500.02, -187500.02, 0.000, 0.000, 0.000, 22:59:34.028, 1541908774028
111, 3020.57, 16375.51, 187500.00, 187500.00, -187500.02, -187500.02, -187500.02, -187500.02, 0.000, 0.000, 0.000, 22:59:34.028, 1541908774028
112, 3110.89, 16252.24, 187500.00, 187500.00, -187500.02, -187500.02, -187500.02, -187500.02, 0.000, 0.000, 0.000, 22:59:34.028, 1541908774028
113, 3338.59, 16670.42, 187500.00, 187500.00, -187500.02, -187500.02, -187500.02, -187500.02, 0.080, 0.988, 0.236, 22:59:34.028, 1541908774028
114, 3217.82, 16713.45, 187500.00, 187500.00, -187500.02, -187500.02, -187500.02, -187500.02, 0.000, 0.000, 0.000, 22:59:34.029, 1541908774029
115, 3054.57, 16449.97, 187500.00, 187500.00, -187500.02, -187500.02, -187500.02, -187500.02, 0.000, 0.000, 0.000, 22:59:34.029, 1541908774029
116, 3076.72, 16233.51, 187500.00, 187500.00, -187500.02, -187500.02, -187500.02, -187500.02, 0.000, 0.000, 0.000, 22:59:34.029, 1541908774029
117, 3319.61, 16606.76, 187500.00, 187500.00, -187500.02, -187500.02, -187500.02, -187500.02, 0.000, 0.000, 0.000, 22:59:34.030, 1541908774030
118, 3244.67, 16745.66, 187500.00, 187500.00, -187500.02, -187500.02, -187500.02, -187500.02, 0.000, 0.000, 0.000, 22:59:34.030, 1541908774030
119, 3095.02, 16533.18, 187500.00, 187500.00, -187500.02, -187500.02, -187500.02, -187500.02, 0.000, 0.000, 0.000, 22:59:34.030, 1541908774030
120, 3078.93, 16273.77, 187500.00, 187500.00, -187500.02, -187500.02, -187500.02, -187500.02, 0.000, 0.000, 0.000, 22:59:34.031, 1541908774031
121, 3321.89, 16564.34, 187500.00, 187500.00, -187500.02, -187500.02, -187500.02, -187500.02, 0.000, 0.000, 0.000, 22:59:34.031, 1541908774031
122, 3312.15, 16792.71, 187500.00, 187500.00, -187500.02, -187500.02, -187500.02, -187500.02, 0.000, 0.000, 0.000, 22:59:34.031, 1541908774031
123, 3154.03, 16617.58, 187500.00, 187500.00, -187500.02, -187500.02, -187500.02, -187500.02, 0.094, 0.980, 0.224, 22:59:34.031, 1541908774031
124, 3094.24, 16333.72, 187500.00, 187500.00, -187500.02, -187500.02, -187500.02, -187500.02, 0.000, 0.000, 0.000, 22:59:34.031, 1541908774031
125, 3318.59, 16526.03, 187500.00, 187500.00, -187500.02, -187500.02, -187500.02, -187500.02, 0.000, 0.000, 0.000, 22:59:34.031, 1541908774031
126, 3350.86, 16821.34, 187500.00, 187500.00, -187500.02, -187500.02, -187500.02, -187500.02, 0.000, 0.000, 0.000, 22:59:34.031, 1541908774031
127, 3160.72, 16668.37, 187500.00, 187500.00, -187500.02, -187500.02, -187500.02, -187500.02, 0.000, 0.000, 0.000, 22:59:34.031, 1541908774031
128, 3076.74, 16377.93, 187500.00, 187500.00, -187500.02, -187500.02, -187500.02, -187500.02, 0.000, 0.000, 0.000, 22:59:34.031, 1541908774031
129, 3275.63, 16456.31, 187500.00, 187500.00, -187500.02, -187500.02, -187500.02, -187500.02, 0.000, 0.000, 0.000, 22:59:34.031, 1541908774031
130, 3391.56, 16830.93, 187500.00, 187500.00, -187500.02, -187500.02, -187500.02, -187500.02, 0.000, 0.000, 0.000, 22:59:34.031, 1541908774031
131, 3214.81, 16737.01, 187500.00, 187500.00, -187500.02, -187500.02, -187500.02, -187500.02, 0.000, 0.000, 0.000, 22:59:34.031, 1541908774031
132, 3079.15, 16433.34, 187500.00, 187500.00, -187500.02, -187500.02, -187500.02, -187500.02, 0.000, 0.000, 0.000, 22:59:34.031, 1541908774031
133, 3225.87, 16390.89, 187500.00, 187500.00, -187500.02, -187500.02, -187500.02, -187500.02, 0.108, 0.998, 0.240, 22:59:34.031, 1541908774031
134, 3411.93, 16802.79, 187500.00, 187500.00, -187500.02, -187500.02, -187500.02, -187500.02, 0.000, 0.000, 0.000, 22:59:34.031, 1541908774031
135, 3256.72, 16780.91, 187500.00, 187500.00, -187500.02, -187500.02, -187500.02, -187500.02, 0.000, 0.000, 0.000, 22:59:34.031, 1541908774031
136, 3110.56, 16500.57, 187500.00, 187500.00, -187500.02, -187500.02, -187500.02, -187500.02, 0.000, 0.000, 0.000, 22:59:34.032, 1541908774032
137, 3179.29, 16336.71, 187500.00, 187500.00, -187500.02, -187500.02, -187500.02, -187500.02, 0.000, 0.000, 0.000, 22:59:34.032, 1541908774032
138, 3418.83, 16749.77, 187500.00, 187500.00, -187500.02, -187500.02, -187500.02, -187500.02, 0.000, 0.000, 0.000, 22:59:34.032, 1541908774032
139, 3299.12, 16809.21, 187500.00, 187500.00, -187500.02, -187500.02, -187500.02, -187500.02, 0.000, 0.000, 0.000, 22:59:34.032, 1541908774032
140, 3132.78, 16548.54, 187500.00, 187500.00, -187500.02, -187500.02, -187500.02, -187500.02, 0.000, 0.000, 0.000, 22:59:34.032, 1541908774032
141, 3137.20, 16304.32, 187500.00, 187500.00, -187500.02, -187500.02, -187500.02, -187500.02, 0.000, 0.000, 0.000, 22:59:34.032, 1541908774032
142, 3374.55, 16646.33, 187500.00, 187500.00, -187500.02, -187500.02, -187500.02, -187500.02, 0.000, 0.000, 0.000, 22:59:34.032, 1541908774032
143, 3288.81, 16787.77, 187500.00, 187500.00, -187500.02, -187500.02, -187500.02, -187500.02, 0.126, 0.992, 0.224, 22:59:34.032, 1541908774032
144, 3124.42, 16569.91, 187500.00, 187500.00, -187500.02, -187500.02, -187500.02, -187500.02, 0.000, 0.000, 0.000, 22:59:34.032, 1541908774032
145, 3079.38, 16273.66, 187500.00, 187500.00, -187500.02, -187500.02, -187500.02, -187500.02, 0.000, 0.000, 0.000, 22:59:34.032, 1541908774032
146, 3328.93, 16543.75, 187500.00, 187500.00, -187500.02, -187500.02, -187500.02, -187500.02, 0.000, 0.000, 0.000, 22:59:34.032, 1541908774032
147, 3329.16, 16791.84, 187500.00, 187500.00, -187500.02, -187500.02, -187500.02, -187500.02, 0.000, 0.000, 0.000, 22:59:34.033, 1541908774033
148, 3156.60, 16622.28, 187500.00, 187500.00, -187500.02, -187500.02, -187500.02, -187500.02, 0.000, 0.000, 0.000, 22:59:34.033, 1541908774033
149, 3081.28, 16311.50, 187500.00, 187500.00, -187500.02, -187500.02, -187500.02, -187500.02, 0.000, 0.000, 0.000, 22:59:34.033, 1541908774033
150, 3303.23, 16455.06, 187500.00, 187500.00, -187500.02, -187500.02, -187500.02, -187500.02, 0.000, 0.000, 0.000, 22:59:34.033, 1541908774033
151, 3398.40, 16802.90, 187500.00, 187500.00, -187500.02, -187500.02, -187500.02, -187500.02, 0.000, 0.000, 0.000, 22:59:34.033, 1541908774033
152, 3209.02, 16646.04, 187500.00, 187500.00, -187500.02, -187500.02, -187500.02, -187500.02, 0.000, 0.000, 0.000, 22:59:34.033, 1541908774033
153, 3089.88, 16324.82, 187500.00, 187500.00, -187500.02, -187500.02, -187500.02, -187500.02, 0.114, 1.038, 0.218, 22:59:34.033, 1541908774033
154, 3283.20, 16372.61, 187500.00, 187500.00, -187500.02, -187500.02, -187500.02, -187500.02, 0.000, 0.000, 0.000, 22:59:34.033, 1541908774033
155, 3431.57, 16757.15, 187500.00, 187500.00, -187500.02, -187500.02, -187500.02, -187500.02, 0.000, 0.000, 0.000, 22:59:34.033, 1541908774033
156, 3308.71, 16713.67, 187500.00, 187500.00, -187500.02, -187500.02, -187500.02, -187500.02, 0.000, 0.000, 0.000, 22:59:34.033, 1541908774033
157, 3225.60, 16470.11, 187500.00, 187500.00, -187500.02, -187500.02, -187500.02, -187500.02, 0.000, 0.000, 0.000, 22:59:34.033, 1541908774033
158, 3357.14, 16408.37, 187500.00, 187500.00, -187500.02, -187500.02, -187500.02, -187500.02, 0.000, 0.000, 0.000, 22:59:34.034, 1541908774034
159, 3563.23, 16821.79, 187500.00, 187500.00, -187500.02, -187500.02, -187500.02, -187500.02, 0.000, 0.000, 0.000, 22:59:34.034, 1541908774034
160, 3390.40, 16790.14, 187500.00, 187500.00, -187500.02, -187500.02, -187500.02, -187500.02, 0.000, 0.000, 0.000, 22:59:34.034, 1541908774034
161, 3224.64, 16513.07, 187500.00, 187500.00, -187500.02, -187500.02, -187500.02, -187500.02, 0.000, 0.000, 0.000, 22:59:34.034, 1541908774034
162, 3318.65, 16394.20, 187500.00, 187500.00, -187500.02, -187500.02, -187500.02, -187500.02, 0.106, 0.928, 0.206, 22:59:34.034, 1541908774034
163, 3538.84, 16755.69, 187500.00, 187500.00, -187500.02, -187500.02, -187500.02, -187500.02, 0.000, 0.000, 0.000, 22:59:34.034, 1541908774034
164, 3449.46, 16852.39, 187500.00, 187500.00, -187500.02, -187500.02, -187500.02, -187500.02, 0.000, 0.000, 0.000, 22:59:34.034, 1541908774034
165, 3300.77, 16651.02, 187500.00, 187500.00, -187500.02, -187500.02, -187500.02, -187500.02, 0.000, 0.000, 0.000, 22:59:34.034, 1541908774034
166, 3287.29, 16435.86, 187500.00, 187500.00, -187500.02, -187500.02, -187500.02, -187500.02, 0.000, 0.000, 0.000, 22:59:34.034, 1541908774034
167, 3505.22, 16709.00, 187500.00, 187500.00, -187500.02, -187500.02, -187500.02, -187500.02, 0.000, 0.000, 0.000, 22:59:34.034, 1541908774034
168, 3440.45, 16852.97, 187500.00, 187500.00, -187500.02, -187500.02, -187500.02, -187500.02, 0.000, 0.000, 0.000, 22:59:34.034, 1541908774034
169, 3281.50, 16690.87, 187500.00, 187500.00, -187500.02, -187500.02, -187500.02, -187500.02, 0.000, 0.000, 0.000, 22:59:34.035, 1541908774035
170, 3264.32, 16501.85, 187500.00, 187500.00, -187500.02, -187500.02, -187500.02, -187500.02, 0.000, 0.000, 0.000, 22:59:34.035, 1541908774035
171, 3447.78, 16640.40, 187500.00, 187500.00, -187500.02, -187500.02, -187500.02, -187500.02, 0.000, 0.000, 0.000, 22:59:34.035, 1541908774035
172, 3472.03, 16829.83, 187500.00, 187500.00, -187500.02, -187500.02, -187500.02, -187500.02, 0.070, 0.950, 0.238, 22:59:34.035, 1541908774035
173, 3333.05, 16726.62, 187500.00, 187500.00, -187500.02, -187500.02, -187500.02, -187500.02, 0.000, 0.000, 0.000, 22:59:34.035, 1541908774035
174, 3269.46, 16543.33, 187500.00, 187500.00, -187500.02, -187500.02, -187500.02, -187500.02, 0.000, 0.000, 0.000, 22:59:34.035, 1541908774035
175, 3400.44, 16586.29, 187500.00, 187500.00, -187500.02, -187500.02, -187500.02, -187500.02, 0.000, 0.000, 0.000, 22:59:34.035, 1541908774035
176, 3444.81, 16788.33, 187500.00, 187500.00, -187500.02, -187500.02, -187500.02, -187500.02, 0.000, 0.000, 0.000, 22:59:34.035, 1541908774035
177, 3362.66, 16767.92, 187500.00, 187500.00, -187500.02, -187500.02, -187500.02, -187500.02, 0.000, 0.000, 0.000, 22:59:34.035, 1541908774035
178, 3304.44, 16610.23, 187500.00, 187500.00, -187500.02, -187500.02, -187500.02, -187500.02, 0.000, 0.000, 0.000, 22:59:34.035, 1541908774035
179, 3378.15, 16560.79, 187500.00, 187500.00, -187500.02, -187500.02, -187500.02, -187500.02, 0.000, 0.000, 0.000, 22:59:34.035, 1541908774035
180, 3460.92, 16785.22, 187500.00, 187500.00, -187500.02, -187500.02, -187500.02, -187500.02, 0.000, 0.000, 0.000, 22:59:34.036, 1541908774036
181, 3332.96, 16757.46, 187500.00, 187500.00, -187500.02, -187500.02, -187500.02, -187500.02, 0.000, 0.000, 0.000, 22:59:34.036, 1541908774036
182, 3256.45, 16606.43, 187500.00, 187500.00, -187500.02, -187500.02, -187500.02, -187500.02, 0.044, 0.948, 0.286, 22:59:34.036, 1541908774036
183, 3329.16, 16532.09, 187500.00, 187500.00, -187500.02, -187500.02, -187500.02, -187500.02, 0.000, 0.000, 0.000, 22:59:34.036, 1541908774036
184, 3474.29, 16783.21, 187500.00, 187500.00, -187500.02, -187500.02, -187500.02, -187500.02, 0.000, 0.000, 0.000, 22:59:34.036, 1541908774036
185, 3392.44, 16825.90, 187500.00, 187500.00, -187500.02, -187500.02, -187500.02, -187500.02, 0.000, 0.000, 0.000, 22:59:34.036, 1541908774036
186, 3280.45, 16664.14, 187500.00, 187500.00, -187500.02, -187500.02, -187500.02, -187500.02, 0.000, 0.000, 0.000, 22:59:34.036, 1541908774036
187, 3312.42, 16516.55, 187500.00, 187500.00, -187500.02, -187500.02, -187500.02, -187500.02, 0.000, 0.000, 0.000, 22:59:34.036, 1541908774036
188, 3483.27, 16757.28, 187500.00, 187500.00, -187500.02, -187500.02, -187500.02, -187500.02, 0.000, 0.000, 0.000, 22:59:34.036, 1541908774036
189, 3414.52, 16859.07, 187500.00, 187500.00, -187500.02, -187500.02, -187500.02, -187500.02, 0.000, 0.000, 0.000, 22:59:34.036, 1541908774036
190, 3277.91, 16710.12, 187500.00, 187500.00, -187500.02, -187500.02, -187500.02, -187500.02, 0.000, 0.000, 0.000, 22:59:34.036, 1541908774036
191, 3259.44, 16504.17, 187500.00, 187500.00, -187500.02, -187500.02, -187500.02, -187500.02, 0.000, 0.000, 0.000, 22:59:34.037, 1541908774037
192, 3461.50, 16717.34, 187500.00, 187500.00, -187500.02, -187500.02, -187500.02, -187500.02, 0.014, 0.926, 0.314, 22:59:34.037, 1541908774037
193, 3442.86, 16885.76, 187500.00, 187500.00, -187500.02, -187500.02, -187500.02, -187500.02, 0.000, 0.000, 0.000, 22:59:34.037, 1541908774037
194, 3299.56, 16747.54, 187500.00, 187500.00, -187500.02, -187500.02, -187500.02, -187500.02, 0.000, 0.000, 0.000, 22:59:34.037, 1541908774037
195, 3247.53, 16520.13, 187500.00, 187500.00, -187500.02, -187500.02, -187500.02, -187500.02, 0.000, 0.000, 0.000, 22:59:34.037, 1541908774037
196, 3423.97, 16656.36, 187500.00, 187500.00, -187500.02, -187500.02, -187500.02, -187500.02, 0.000, 0.000, 0.000, 22:59:34.037, 1541908774037
197, 3442.71, 16878.88, 187500.00, 187500.00, -187500.02, -187500.02, -187500.02, -187500.02, 0.000, 0.000, 0.000, 22:59:34.037, 1541908774037
198, 3311.92, 16785.53, 187500.00, 187500.00, -187500.02, -187500.02, -187500.02, -187500.02, 0.000, 0.000, 0.000, 22:59:34.037, 1541908774037
199, 3246.61, 16553.99, 187500.00, 187500.00, -187500.02, -187500.02, -187500.02, -187500.02, 0.000, 0.000, 0.000, 22:59:34.037, 1541908774037
200, 3376.77, 16578.02, 187500.00, 187500.00, -187500.02, -187500.02, -187500.02, -187500.02, 0.000, 0.000, 0.000, 22:59:34.037, 1541908774037
201, 3459.27, 16865.24, 187500.00, 187500.00, -187500.02, -187500.02, -187500.02, -187500.02, 0.018, 0.932, 0.318, 22:59:34.037, 1541908774037
202, 3323.06, 16799.44, 187500.00, 187500.00, -187500.02, -187500.02, -187500.02, -187500.02, 0.000, 0.000, 0.000, 22:59:34.038, 1541908774038
203, 3234.99, 16577.33, 187500.00, 187500.00, -187500.02, -187500.02, -187500.02, -187500.02, 0.000, 0.000, 0.000, 22:59:34.038, 1541908774038
204, 3340.38, 16527.91, 187500.00, 187500.00, -187500.02, -187500.02, -187500.02, -187500.02, 0.000, 0.000, 0.000, 22:59:34.038, 1541908774038
205, 3472.95, 16841.50, 187500.00, 187500.00, -187500.02, -187500.02, -187500.02, -187500.02, 0.000, 0.000, 0.000, 22:59:34.038, 1541908774038
206, 3345.50, 16823.58, 187500.00, 187500.00, -187500.02, -187500.02, -187500.02, -187500.02, 0.000, 0.000, 0.000, 22:59:34.038, 1541908774038
207, 3227.68, 16594.74, 187500.00, 187500.00, -187500.02, -187500.02, -187500.02, -187500.02, 0.000, 0.000, 0.000, 22:59:34.038, 1541908774038
208, 3304.55, 16470.89, 187500.00, 187500.00, -187500.02, -187500.02, -187500.02, -187500.02, 0.000, 0.000, 0.000, 22:59:34.038, 1541908774038
209, 3482.96, 16783.83, 187500.00, 187500.00, -187500.02, -187500.02, -187500.02, -187500.02, 0.000, 0.000, 0.000, 22:59:34.038, 1541908774038
210, 3367.47, 16823.67, 187500.00, 187500.00, -187500.02, -187500.02, -187500.02, -187500.02, 0.000, 0.000, 0.000, 22:59:34.038, 1541908774038
211, 3233.07, 16617.54, 187500.00, 187500.00, -187500.02, -187500.02, -187500.02, -187500.02, 0.024, 0.956, 0.320, 22:59:34.038, 1541908774038
212, 3256.05, 16432.73, 187500.00, 187500.00, -187500.02, -187500.02, -187500.02, -187500.02, 0.000, 0.000, 0.000, 22:59:34.038, 1541908774038
213, 3484.70, 16732.49, 187500.00, 187500.00, -187500.02, -187500.02, -187500.02, -187500.02, 0.000, 0.000, 0.000, 22:59:34.039, 1541908774039
214, 3413.45, 16846.67, 187500.00, 187500.00, -187500.02, -187500.02, -187500.02, -187500.02, 0.000, 0.000, 0.000, 22:59:34.039, 1541908774039
215, 3253.77, 16653.23, 187500.00, 187500.00, -187500.02, -187500.02, -187500.02, -187500.02, 0.000, 0.000, 0.000, 22:59:34.039, 1541908774039
216, 3227.61, 16422.90, 187500.00, 187500.00, -187500.02, -187500.02, -187500.02, -187500.02, 0.000, 0.000, 0.000, 22:59:34.039, 1541908774039
217, 3444.09, 16646.73, 187500.00, 187500.00, -187500.02, -187500.02, -187500.02, -187500.02, 0.000, 0.000, 0.000, 22:59:34.039, 1541908774039
218, 3440.00, 16839.98, 187500.00, 187500.00, -187500.02, -187500.02, -187500.02, -187500.02, 0.000, 0.000, 0.000, 22:59:34.039, 1541908774039
219, 3280.77, 16672.32, 187500.00, 187500.00, -187500.02, -187500.02, -187500.02, -187500.02, 0.000, 0.000, 0.000, 22:59:34.039, 1541908774039
220, 3208.97, 16405.11, 187500.00, 187500.00, -187500.02, -187500.02, -187500.02, -187500.02, 0.000, 0.000, 0.000, 22:59:34.039, 1541908774039
221, 3419.77, 16554.35, 187500.00, 187500.00, -187500.02, -187500.02, -187500.02, -187500.02, 0.028, 0.956, 0.302, 22:59:34.040, 1541908774040
222, 3458.44, 16817.54, 187500.00, 187500.00, -187500.02, -187500.02, -187500.02, -187500.02, 0.000, 0.000, 0.000, 22:59:34.040, 1541908774040
223, 3277.86, 16682.09, 187500.00, 187500.00, -187500.02, -187500.02, -187500.02, -187500.02, 0.000, 0.000, 0.000, 22:59:34.040, 1541908774040
224, 3207.07, 16434.10, 187500.00, 187500.00, -187500.02, -187500.02, -187500.02, -187500.02, 0.000, 0.000, 0.000, 22:59:34.040, 1541908774040
225, 3376.12, 16469.61, 187500.00, 187500.00, -187500.02, -187500.02, -187500.02, -187500.02, 0.000, 0.000, 0.000, 22:59:34.305, 1541908774305
226, 3465.91, 16772.82, 187500.00, 187500.00, -187500.02, -187500.02, -187500.02, -187500.02, 0.000, 0.000, 0.000, 22:59:34.306, 1541908774306
227, 3309.62, 16696.64, 187500.00, 187500.00, -187500.02, -187500.02, -187500.02, -187500.02, 0.000, 0.000, 0.000, 22:59:34.306, 1541908774306
228, 3206.65, 16446.93, 187500.00, 187500.00, -187500.02, -187500.02, -187500.02, -187500.02, 0.000, 0.000, 0.000, 22:59:34.306, 1541908774306
229, 3330.28, 16386.73, 187500.00, 187500.00, -187500.02, -187500.02, -187500.02, -187500.02, 0.000, 0.000, 0.000, 22:59:34.306, 1541908774306
230, 3500.77, 16743.76, 187500.00, 187500.00, -187500.02, -187500.02, -187500.02, -187500.02, 0.000, 0.000, 0.000, 22:59:34.307, 1541908774307
231, 3343.69, 16729.41, 187500.00, 187500.00, -187500.02, -187500.02, -187500.02, -187500.02, 0.046, 0.974, 0.298, 22:59:34.307, 1541908774307
232, 3192.86, 16482.44, 187500.00, 187500.00, -187500.02, -187500.02, -187500.02, -187500.02, 0.000, 0.000, 0.000, 22:59:34.307, 1541908774307
233, 3275.63, 16350.34, 187500.00, 187500.00, -187500.02, -187500.02, -187500.02, -187500.02, 0.000, 0.000, 0.000, 22:59:34.307, 1541908774307
234, 3473.04, 16683.30, 187500.00, 187500.00, -187500.02, -187500.02, -187500.02, -187500.02, 0.000, 0.000, 0.000, 22:59:34.307, 1541908774307
235, 3361.75, 16743.36, 187500.00, 187500.00, -187500.02, -187500.02, -187500.02, -187500.02, 0.000, 0.000, 0.000, 22:59:34.307, 1541908774307
236, 3218.00, 16521.92, 187500.00, 187500.00, -187500.02, -187500.02, -187500.02, -187500.02, 0.000, 0.000, 0.000, 22:59:34.307, 1541908774307
237, 3226.45, 16304.17, 187500.00, 187500.00, -187500.02, -187500.02, -187500.02, -187500.02, 0.000, 0.000, 0.000, 22:59:34.308, 1541908774308
238, 3462.24, 16618.61, 187500.00, 187500.00, -187500.02, -187500.02, -187500.02, -187500.02, 0.000, 0.000, 0.000, 22:59:34.308, 1541908774308
239, 3395.99, 16759.76, 187500.00, 187500.00, -187500.02, -187500.02, -187500.02, -187500.02, 0.000, 0.000, 0.000, 22:59:34.309, 1541908774309
240, 3244.20, 16574.73, 187500.00, 187500.00, -187500.02, -187500.02, -187500.02, -187500.02, 0.000, 0.000, 0.000, 22:59:34.309, 1541908774309
241, 3211.41, 16327.75, 187500.00, 187500.00, -187500.02, -187500.02, -187500.02, -187500.02, 0.064, 0.962, 0.300, 22:59:34.309, 1541908774309
242, 3438.93, 16554.06, 187500.00, 187500.00, -187500.02, -187500.02, -187500.02, -187500.02, 0.000, 0.000, 0.000, 22:59:34.309, 1541908774309
243, 3424.11, 16768.12, 187500.00, 187500.00, -187500.02, -187500.02, -187500.02, -187500.02, 0.000, 0.000, 0.000, 22:59:34.309, 1541908774309
244, 3265.72, 16624.69, 187500.00, 187500.00, -187500.02, -187500.02, -187500.02, -187500.02, 0.000, 0.000, 0.000, 22:59:34.309, 1541908774309
245, 3202.96, 16367.94, 187500.00, 187500.00, -187500.02, -187500.02, -187500.02, -187500.02, 0.000, 0.000, 0.000, 22:59:34.310, 1541908774310
246, 3401.02, 16491.79, 187500.00, 187500.00, -187500.02, -187500.02, -187500.02, -187500.02, 0.000, 0.000, 0.000, 22:59:34.310, 1541908774310
247, 3459.94, 16795.30, 187500.00, 187500.00, -187500.02, -187500.02, -187500.02, -187500.02, 0.000, 0.000, 0.000, 22:59:34.310, 1541908774310
248, 3287.03, 16684.41, 187500.00, 187500.00, -187500.02, -187500.02, -187500.02, -187500.02, 0.000, 0.000, 0.000, 22:59:34.311, 1541908774311
249, 3194.29, 16418.59, 187500.00, 187500.00, -187500.02, -187500.02, -187500.02, -187500.02, 0.000, 0.000, 0.000, 22:59:34.311, 1541908774311
250, 3362.75, 16448.36, 187500.00, 187500.00, -187500.02, -187500.02, -187500.02, -187500.02, 0.066, 0.944, 0.302, 22:59:34.312, 1541908774312
251, 3483.39, 16797.02, 187500.00, 187500.00, -187500.02, -187500.02, -187500.02, -187500.02, 0.000, 0.000, 0.000, 22:59:34.312, 1541908774312
252, 3327.21, 16743.56, 187500.00, 187500.00, -187500.02, -187500.02, -187500.02, -187500.02, 0.000, 0.000, 0.000, 22:59:34.312, 1541908774312
253, 3225.83, 16505.40, 187500.00, 187500.00, -187500.02, -187500.02, -187500.02, -187500.02, 0.000, 0.000, 0.000, 22:59:34.312, 1541908774312
254, 3336.91, 16434.25, 187500.00, 187500.00, -187500.02, -187500.02, -187500.02, -187500.02, 0.000, 0.000, 0.000, 22:59:34.313, 1541908774313
255, 3498.79, 16788.71, 187500.00, 187500.00, -187500.02, -187500.02, -187500.02, -187500.02, 0.000, 0.000, 0.000, 22:59:34.313, 1541908774313
0, 3362.73, 16794.63, 187500.00, 187500.00, -187500.02, -187500.02, -187500.02, -187500.02, 0.000, 0.000, 0.000, 22:59:34.313, 1541908774313
1, 3236.40, 16564.74, 187500.00, 187500.00, -187500.02, -187500.02, -187500.02, -187500.02, 0.000, 0.000, 0.000, 22:59:34.313, 1541908774313
2, 3305.51, 16411.83, 187500.00, 187500.00, -187500.02, -187500.02, -187500.02, -187500.02, 0.000, 0.000, 0.000, 22:59:34.316, 1541908774316
3, 3525.12, 16760.81, 187500.00, 187500.00, -187500.02, -187500.02, -187500.02, -187500.02, 0.000, 0.000, 0.000, 22:59:34.317, 1541908774317
4, 3429.16, 16847.27, 187500.00, 187500.00, -187500.02, -187500.02, -187500.02, -187500.02, 0.054, 0.926, 0.314, 22:59:34.319, 1541908774319
5, 3284.79, 16637.54, 187500.00, 187500.00, -187500.02, -187500.02, -187500.02, -187500.02, 0.000, 0.000, 0.000, 22:59:34.321, 1541908774321
6, 3278.64, 16408.66, 187500.00, 187500.00, -187500.02, -187500.02, -187500.02, -187500.02, 0.000, 0.000, 0.000, 22:59:34.322, 1541908774322
7, 3507.66, 16700.93, 187500.00, 187500.00, -187500.02, -187500.02, -187500.02, -187500.02, 0.000, 0.000, 0.000, 22:59:34.322, 1541908774322
8, 3467.34, 16874.22, 187500.00, 187500.00, -187500.02, -187500.02, -187500.02, -187500.02, 0.000, 0.000, 0.000, 22:59:34.322, 1541908774322
9, 3293.82, 16675.47, 187500.00, 187500.00, -187500.02, -187500.02, -187500.02, -187500.02, 0.000, 0.000, 0.000, 22:59:34.322, 1541908774322
10, 3279.34, 16438.14, 187500.00, 187500.00, -187500.02, -187500.02, -187500.02, -187500.02, 0.000, 0.000, 0.000, 22:59:34.322, 1541908774322
11, 3510.97, 16659.60, 187500.00, 187500.00, -187500.02, -187500.02, -187500.02, -187500.02, 0.000, 0.000, 0.000, 22:59:34.322, 1541908774322
12, 3472.70, 16867.47, 187500.00, 187500.00, -187500.02, -187500.02, -187500.02, -187500.02, 0.000, 0.000, 0.000, 22:59:34.322, 1541908774322
13, 3271.22, 16689.64, 187500.00, 187500.00, -187500.02, -187500.02, -187500.02, -187500.02, 0.000, 0.000, 0.000, 22:59:34.322, 1541908774322
14, 3177.61, 16395.96, 187500.00, 187500.00, -187500.02, -187500.02, -187500.02, -187500.02, 0.030, 0.948, 0.322, 22:59:34.322, 1541908774322
15, 3355.98, 16485.17, 187500.00, 187500.00, -187500.02, -187500.02, -187500.02, -187500.02, 0.000, 0.000, 0.000, 22:59:34.323, 1541908774323
16, 3413.54, 16792.98, 187500.00, 187500.00, -187500.02, -187500.02, -187500.02, -187500.02, 0.000, 0.000, 0.000, 22:59:34.323, 1541908774323
17, 3228.22, 16666.73, 187500.00, 187500.00, -187500.02, -187500.02, -187500.02, -187500.02, 0.000, 0.000, 0.000, 22:59:34.323, 1541908774323
18, 3071.84, 16350.21, 187500.00, 187500.00, -187500.02, -187500.02, -187500.02, -187500.02, 0.000, 0.000, 0.000, 22:59:34.324, 1541908774324
19, 3199.92, 16323.46, 187500.00, 187500.00, -187500.02, -187500.02, -187500.02, -187500.02, 0.000, 0.000, 0.000, 22:59:34.324, 1541908774324
20, 3337.18, 16680.53, 187500.00, 187500.00, -187500.02, -187500.02, -187500.02, -187500.02, 0.000, 0.000, 0.000, 22:59:34.324, 1541908774324
21, 3167.62, 16621.67, 187500.00, 187500.00, -187500.02, -187500.02, -187500.02, -187500.02, 0.000, 0.000, 0.000, 22:59:34.324, 1541908774324
22, 3023.36, 16340.44, 187500.00, 187500.00, -187500.02, -187500.02, -187500.02, -187500.02, 0.000, 0.000, 0.000, 22:59:34.324, 1541908774324
23, 3117.42, 16232.04, 187500.00, 187500.00, -187500.02, -187500.02, -187500.02, -187500.02, 0.000, 0.000, 0.000, 22:59:34.324, 1541908774324
24, 3313.62, 16620.09, 187500.00, 187500.00, -187500.02, -187500.02, -187500.02, -187500.02, 0.038, 0.942, 0.318, 22:59:34.324, 1541908774324
25, 3176.14, 16636.29, 187500.00, 187500.00, -187500.02, -187500.02, -187500.02, -187500.02, 0.000, 0.000, 0.000, 22:59:34.324, 1541908774324
26, 3018.71, 16384.97, 187500.00, 187500.00, -187500.02, -187500.02, -187500.02, -187500.02, 0.000, 0.000, 0.000, 22:59:34.324, 1541908774324
27, 3071.67, 16212.19, 187500.00, 187500.00, -187500.02, -187500.02, -187500.02, -187500.02, 0.000, 0.000, 0.000, 22:59:34.324, 1541908774324
28, 3341.34, 16607.81, 187500.00, 187500.00, -187500.02, -187500.02, -187500.02, -187500.02, 0.000, 0.000, 0.000, 22:59:34.324, 1541908774324
29, 3262.82, 16724.76, 187500.00, 187500.00, -187500.02, -187500.02, -187500.02, -187500.02, 0.000, 0.000, 0.000, 22:59:34.325, 1541908774325
30, 3095.52, 16487.34, 187500.00, 187500.00, -187500.02, -187500.02, -187500.02, -187500.02, 0.000, 0.000, 0.000, 22:59:34.325, 1541908774325
31, 3074.50, 16218.34, 187500.00, 187500.00, -187500.02, -187500.02, -187500.02, -187500.02, 0.000, 0.000, 0.000, 22:59:34.325, 1541908774325
32, 3324.82, 16532.04, 187500.00, 187500.00, -187500.02, -187500.02, -187500.02, -187500.02, 0.000, 0.000, 0.000, 22:59:34.325, 1541908774325
33, 3301.64, 16758.94, 187500.00, 187500.00, -187500.02, -187500.02, -187500.02, -187500.02, 0.054, 0.954, 0.310, 22:59:34.325, 1541908774325
34, 3116.28, 16548.85, 187500.00, 187500.00, -187500.02, -187500.02, -187500.02, -187500.02, 0.000, 0.000, 0.000, 22:59:34.325, 1541908774325
35, 3048.84, 16241.47, 187500.00, 187500.00, -187500.02, -187500.02, -187500.02, -187500.02, 0.000, 0.000, 0.000, 22:59:34.325, 1541908774325
0, 0.00, 0.00, 0.00, 0.00, 0.00, 0.00, 0.00, 0.00, 0.000, 0.000, 0.000, 22:59:34.334, 1541908774334
1, 3392.06, 16623.30, 0.00, 187500.00, -187500.02, -187500.02, -187500.02, -187500.02, 0.084, 0.978, 0.298, 22:59:34.733, 1541908774733
2, 3499.46, 16584.97, 0.00, 187500.00, -187500.02, -187500.02, -187500.02, -187500.02, 0.000, 0.000, 0.000, 22:59:34.733, 1541908774733
3, 3595.50, 16921.99, 0.00, 187500.00, -187500.02, -187500.02, -187500.02, -187500.02, 0.000, 0.000, 0.000, 22:59:34.733, 1541908774733
4, 3394.92, 16819.78, 0.00, 187500.00, -187500.02, -187500.02, -187500.02, -187500.02, 0.000, 0.000, 0.000, 22:59:34.733, 1541908774733
5, 3232.64, 16508.06, 0.00, 187500.00, -187500.02, -187500.02, -187500.02, -187500.02, 0.000, 0.000, 0.000, 22:59:34.733, 1541908774733
6, 3314.85, 16392.84, 0.00, 187500.00, -187500.02, -187500.02, -187500.02, -187500.02, 0.000, 0.000, 0.000, 22:59:34.733, 1541908774733
7, 3504.71, 16775.61, 0.00, 187500.00, -187500.02, -187500.02, -187500.02, -187500.02, 0.000, 0.000, 0.000, 22:59:34.733, 1541908774733
8, 3361.37, 16779.59, 0.00, 187500.00, -187500.02, -187500.02, -187500.02, -187500.02, 0.000, 0.000, 0.000, 22:59:34.733, 1541908774733
9, 3195.25, 16513.11, 0.00, 187500.00, -187500.02, -187500.02, -187500.02, -187500.02, 0.000, 0.000, 0.000, 22:59:34.733, 1541908774733
10, 3210.74, 16307.63, 0.00, 187500.00, -187500.02, -187500.02, -187500.02, -187500.02, 0.000, 0.000, 0.000, 22:59:34.733, 1541908774733
11, 3431.06, 16662.73, 0.00, 187500.00, -187500.02, -187500.02, -187500.02, -187500.02, 0.090, 0.976, 0.288, 22:59:34.733, 1541908774733
12, 3351.78, 16768.28, 0.00, 187500.00, -187500.02, -187500.02, -187500.02, -187500.02, 0.000, 0.000, 0.000, 22:59:34.733, 1541908774733
13, 3194.09, 16544.02, 0.00, 187500.00, -187500.02, -187500.02, -187500.02, -187500.02, 0.000, 0.000, 0.000, 22:59:34.733, 1541908774733
14, 3169.50, 16289.24, 0.00, 187500.00, -187500.02, -187500.02, -187500.02, -187500.02, 0.000, 0.000, 0.000, 22:59:34.733, 1541908774733
15, 3410.34, 16587.59, 0.00, 187500.00, -187500.02, -187500.02, -187500.02, -187500.02, 0.000, 0.000, 0.000, 22:59:34.733, 1541908774733
16, 3372.83, 16771.32, 0.00, 187500.00, -187500.02, -187500.02, -187500.02, -187500.02, 0.000, 0.000, 0.000, 22:59:34.734, 1541908774734
17, 3204.75, 16584.26, 0.00, 187500.00, -187500.02, -187500.02, -187500.02, -187500.02, 0.000, 0.000, 0.000, 22:59:34.734, 1541908774734
18, 3142.68, 16302.60, 0.00, 187500.00, -187500.02, -187500.02, -187500.02, -187500.02, 0.000, 0.000, 0.000, 22:59:34.734, 1541908774734
19, 3369.19, 16507.95, 0.00, 187500.00, -187500.02, -187500.02, -187500.02, -187500.02, 0.000, 0.000, 0.000, 22:59:34.734, 1541908774734
20, 3397.89, 16780.64, 0.00, 187500.00, -187500.02, -187500.02, -187500.02, -187500.02, 0.000, 0.000, 0.000, 22:59:34.734, 1541908774734
21, 3217.91, 16623.17, 0.00, 187500.00, -187500.02, -187500.02, -187500.02, -187500.02, 0.082, 0.952, 0.278, 22:59:34.734, 1541908774734
22, 3113.17, 16314.29, 0.00, 187500.00, -187500.02, -187500.02, -187500.02, -187500.02, 0.000, 0.000, 0.000, 22:59:34.734, 1541908774734
23, 3327.41, 16428.93, 0.00, 187500.00, -187500.02, -187500.02, -187500.02, -187500.02, 0.000, 0.000, 0.000, 22:59:34.734, 1541908774734
24, 3418.16, 16768.81, 0.00, 187500.00, -187500.02, -187500.02, -187500.02, -187500.02, 0.000, 0.000, 0.000, 22:59:34.734, 1541908774734
25, 3226.47, 16657.77, 0.00, 187500.00, -187500.02, -187500.02, -187500.02, -187500.02, 0.000, 0.000, 0.000, 22:59:34.734, 1541908774734
26, 3099.25, 16360.49, 0.00, 187500.00, -187500.02, -187500.02, -187500.02, -187500.02, 0.000, 0.000, 0.000, 22:59:34.734, 1541908774734
27, 3255.75, 16352.40, 0.00, 187500.00, -187500.02, -187500.02, -187500.02, -187500.02, 0.000, 0.000, 0.000, 22:59:34.734, 1541908774734
28, 3421.31, 16749.12, 0.00, 187500.00, -187500.02, -187500.02, -187500.02, -187500.02, 0.000, 0.000, 0.000, 22:59:34.734, 1541908774734
29, 3263.24, 16704.87, 0.00, 187500.00, -187500.02, -187500.02, -187500.02, -187500.02, 0.000, 0.000, 0.000, 22:59:34.734, 1541908774734
30, 3118.72, 16413.06, 0.00, 187500.00, -187500.02, -187500.02, -187500.02, -187500.02, 0.078, 0.956, 0.268, 22:59:34.734, 1541908774734
31, 3206.04, 16289.46, 0.00, 187500.00, -187500.02, -187500.02, -187500.02, -187500.02, 0.000, 0.000, 0.000, 22:59:34.734, 1541908774734
32, 3420.15, 16699.28, 0.00, 187500.00, -187500.02, -187500.02, -187500.02, -187500.02, 0.000, 0.000, 0.000, 22:59:34.735, 1541908774735
33, 3292.05, 16731.26, 0.00, 187500.00, -187500.02, -187500.02, -187500.02, -187500.02, 0.000, 0.000, 0.000, 22:59:34.735, 1541908774735
34, 3127.48, 16458.97, 0.00, 187500.00, -187500.02, -187500.02, -187500.02, -187500.02, 0.000, 0.000, 0.000, 22:59:34.735, 1541908774735
35, 3157.74, 16246.32, 0.00, 187500.00, -187500.02, -187500.02, -187500.02, -187500.02, 0.000, 0.000, 0.000, 22:59:34.735, 1541908774735
36, 3408.80, 16630.61, 0.00, 187500.00, -187500.02, -187500.02, -187500.02, -187500.02, 0.000, 0.000, 0.000, 22:59:34.735, 1541908774735
37, 3321.31, 16753.59, 0.00, 187500.00, -187500.02, -187500.02, -187500.02, -187500.02, 0.000, 0.000, 0.000, 22:59:34.735, 1541908774735
38, 3141.81, 16511.12, 0.00, 187500.00, -187500.02, -187500.02, -187500.02, -187500.02, 0.000, 0.000, 0.000, 22:59:34.735, 1541908774735
39, 3116.03, 16241.13, 0.00, 187500.00, -187500.02, -187500.02, -187500.02, -187500.02, 0.000, 0.000, 0.000, 22:59:34.735, 1541908774735
40, 3375.96, 16553.16, 0.00, 187500.00, -187500.02, -187500.02, -187500.02, -187500.02, 0.062, 0.968, 0.266, 22:59:34.735, 1541908774735
41, 3339.64, 16755.43, 0.00, 187500.00, -187500.02, -187500.02, -187500.02, -187500.02, 0.000, 0.000, 0.000, 22:59:34.735, 1541908774735
42, 3157.39, 16556.79, 0.00, 187500.00, -187500.02, -187500.02, -187500.02, -187500.02, 0.000, 0.000, 0.000, 22:59:34.735, 1541908774735
43, 3098.78, 16268.27, 0.00, 187500.00, -187500.02, -187500.02, -187500.02, -187500.02, 0.000, 0.000, 0.000, 22:59:34.735, 1541908774735
44, 3349.21, 16478.69, 0.00, 187500.00, -187500.02, -187500.02, -187500.02, -187500.02, 0.000, 0.000, 0.000, 22:59:34.735, 1541908774735
45, 3381.95, 16771.36, 0.00, 187500.00, -187500.02, -187500.02, -187500.02, -187500.02, 0.000, 0.000, 0.000, 22:59:34.735, 1541908774735
46, 3199.23, 16612.91, 0.00, 187500.00, -187500.02, -187500.02, -187500.02, -187500.02, 0.000, 0.000, 0.000, 22:59:34.735, 1541908774735
47, 3104.41, 16302.31, 0.00, 187500.00, -187500.02, -187500.02, -187500.02, -187500.02, 0.000, 0.000, 0.000, 22:59:34.735, 1541908774735
48, 3307.07, 16387.92, 0.00, 187500.00, -187500.02, -187500.02, -187500.02, -187500.02, 0.000, 0.000, 0.000, 22:59:34.735, 1541908774735
49, 3414.72, 16758.80, 0.00, 187500.00, -187500.02, -187500.02, -187500.02, -187500.02, 0.000, 0.000, 0.000, 22:59:34.736, 1541908774736
50, 3231.66, 16655.54, 0.00, 187500.00, -187500.02, -187500.02, -187500.02, -187500.02, 0.048, 0.972, 0.262, 22:59:34.736, 1541908774736
51, 3099.38, 16340.98, 0.00, 187500.00, -187500.02, -187500.02, -187500.02, -187500.02, 0.000, 0.000, 0.000, 22:59:34.736, 1541908774736
52, 3249.41, 16309.33, 0.00, 187500.00, -187500.02, -187500.02, -187500.02, -187500.02, 0.000, 0.000, 0.000, 22:59:34.736, 1541908774736
53, 3424.24, 16731.29, 0.00, 187500.00, -187500.02, -187500.02, -187500.02, -187500.02, 0.000, 0.000, 0.000, 22:59:34.736, 1541908774736
54, 3258.75, 16699.50, 0.00, 187500.00, -187500.02, -187500.02, -187500.02, -187500.02, 0.000, 0.000, 0.000, 22:59:34.736, 1541908774736
55, 3093.50, 16394.69, 0.00, 187500.00, -187500.02, -187500.02, -187500.02, -187500.02, 0.000, 0.000, 0.000, 22:59:34.736, 1541908774736
56, 3170.39, 16245.22, 0.00, 187500.00, -187500.02, -187500.02, -187500.02, -187500.02, 0.000, 0.000, 0.000, 22:59:34.736, 1541908774736
57, 3408.62, 16678.71, 0.00, 187500.00, -187500.02, -187500.02, -187500.02, -187500.02, 0.000, 0.000, 0.000, 22:59:34.736, 1541908774736
58, 3288.01, 16736.23, 0.00, 187500.00, -187500.02, -187500.02, -187500.02, -187500.02, 0.000, 0.000, 0.000, 22:59:34.736, 1541908774736
59, 3112.23, 16456.94, 0.00, 187500.00, -187500.02, -187500.02, -187500.02, -187500.02, 0.000, 0.000, 0.000, 22:59:34.736, 1541908774736
60, 3146.43, 16237.96, 0.00, 187500.00, -187500.02, -187500.02, -187500.02, -187500.02, 0.060, 0.958, 0.258, 22:59:34.737, 1541908774737
61, 3403.34, 16622.43, 0.00, 187500.00, -187500.02, -187500.02, -187500.02, -187500.02, 0.000, 0.000, 0.000, 22:59:34.737, 1541908774737
62, 3305.62, 16754.89, 0.00, 187500.00, -187500.02, -187500.02, -187500.02, -187500.02, 0.000, 0.000, 0.000, 22:59:34.737, 1541908774737
63, 3111.43, 16512.35, 0.00, 187500.00, -187500.02, -187500.02, -187500.02, -187500.02, 0.000, 0.000, 0.000, 22:59:34.737, 1541908774737
64, 3076.94, 16224.06, 0.00, 187500.00, -187500.02, -187500.02, -187500.02, -187500.02, 0.000, 0.000, 0.000, 22:59:34.737, 1541908774737
65, 3359.00, 16542.73, 0.00, 187500.00, -187500.02, -187500.02, -187500.02, -187500.02, 0.000, 0.000, 0.000, 22:59:34.737, 1541908774737
66, 3336.15, 16778.43, 0.00, 187500.00, -187500.02, -187500.02, -187500.02, -187500.02, 0.000, 0.000, 0.000, 22:59:34.737, 1541908774737
67, 3137.25, 16565.12, 0.00, 187500.00, -187500.02, -187500.02, -187500.02, -187500.02, 0.000, 0.000, 0.000, 22:59:34.737, 1541908774737
68, 3065.70, 16247.21, 0.00, 187500.00, -187500.02, -187500.02, -187500.02, -187500.02, 0.000, 0.000, 0.000, 22:59:34.737, 1541908774737
69, 3316.13, 16442.63, 0.00, 187500.00, -187500.02, -187500.02, -187500.02, -187500.02, 0.000, 0.000, 0.000, 22:59:34.737, 1541908774737
70, 3357.43, 16761.37, 0.00, 187500.00, -187500.02, -187500.02, -187500.02, -187500.02, 0.086, 0.942, 0.258, 22:59:34.737, 1541908774737
71, 3166.42, 16611.50, 0.00, 187500.00, -187500.02, -187500.02, -187500.02, -187500.02, 0.000, 0.000, 0.000, 22:59:34.737, 1541908774737
72, 3052.58, 16280.52, 0.00, 187500.00, -187500.02, -187500.02, -187500.02, -187500.02, 0.000, 0.000, 0.000, 22:59:34.738, 1541908774738
73, 3256.67, 16347.39, 0.00, 187500.00, -187500.02, -187500.02, -187500.02, -187500.02, 0.000, 0.000, 0.000, 22:59:34.738, 1541908774738
74, 3385.53, 16746.22, 0.00, 187500.00, -187500.02, -187500.02, -187500.02, -187500.02, 0.000, 0.000, 0.000, 22:59:34.738, 1541908774738
75, 3186.15, 16633.14, 0.00, 187500.00, -187500.02, -187500.02, -187500.02, -187500.02, 0.000, 0.000, 0.000, 22:59:34.738, 1541908774738
76, 3046.05, 16307.92, 0.00, 187500.00, -187500.02, -187500.02, -187500.02, -187500.02, 0.000, 0.000, 0.000, 22:59:34.738, 1541908774738
77, 3201.80, 16258.66, 0.00, 187500.00, -187500.02, -187500.02, -187500.02, -187500.02, 0.000, 0.000, 0.000, 22:59:34.738, 1541908774738
78, 3403.32, 16695.17, 0.00, 187500.00, -187500.02, -187500.02, -187500.02, -187500.02, 0.000, 0.000, 0.000, 22:59:34.738, 1541908774738
79, 3230.32, 16667.07, 0.00, 187500.00, -187500.02, -187500.02, -187500.02, -187500.02, 0.106, 0.964, 0.266, 22:59:34.738, 1541908774738
80, 3064.27, 16364.40, 0.00, 187500.00, -187500.02, -187500.02, -187500.02, -187500.02, 0.000, 0.000, 0.000, 22:59:34.738, 1541908774738
81, 3120.53, 16177.19, 0.00, 187500.00, -187500.02, -187500.02, -187500.02, -187500.02, 0.000, 0.000, 0.000, 22:59:34.738, 1541908774738
82, 3380.68, 16611.50, 0.00, 187500.00, -187500.02, -187500.02, -187500.02, -187500.02, 0.000, 0.000, 0.000, 22:59:34.738, 1541908774738
83, 3262.97, 16679.50, 0.00, 187500.00, -187500.02, -187500.02, -187500.02, -187500.02, 0.000, 0.000, 0.000, 22:59:34.738, 1541908774738
84, 3088.52, 16401.80, 0.00, 187500.00, -187500.02, -187500.02, -187500.02, -187500.02, 0.000, 0.000, 0.000, 22:59:34.739, 1541908774739
85, 3101.82, 16150.19, 0.00, 187500.00, -187500.02, -187500.02, -187500.02, -187500.02, 0.000, 0.000, 0.000, 22:59:34.739, 1541908774739
86, 3393.22, 16529.34, 0.00, 187500.00, -187500.02, -187500.02, -187500.02, -187500.02, 0.000, 0.000, 0.000, 22:59:34.739, 1541908774739
87, 3320.60, 16692.37, 0.00, 187500.00, -187500.02, -187500.02, -187500.02, -187500.02, 0.000, 0.000, 0.000, 22:59:34.739, 1541908774739
88, 3128.28, 16449.41, 0.00, 187500.00, -187500.02, -187500.02, -187500.02, -187500.02, 0.000, 0.000, 0.000, 22:59:34.739, 1541908774739
89, 3101.66, 16157.83, 0.00, 187500.00, -187500.02, -187500.02, -187500.02, -187500.02, 0.116, 0.970, 0.262, 22:59:34.739, 1541908774739
90, 3394.00, 16457.43, 0.00, 187500.00, -187500.02, -187500.02, -187500.02, -187500.02, 0.000, 0.000, 0.000, 22:59:34.739, 1541908774739
91, 3380.97, 16715.93, 0.00, 187500.00, -187500.02, -187500.02, -187500.02, -187500.02, 0.000, 0.000, 0.000, 22:59:34.739, 1541908774739
92, 3180.23, 16526.05, 0.00, 187500.00, -187500.02, -187500.02, -187500.02, -187500.02, 0.000, 0.000, 0.000, 22:59:34.739, 1541908774739
93, 3090.35, 16196.07, 0.00, 187500.00, -187500.02, -187500.02, -187500.02, -187500.02, 0.000, 0.000, 0.000, 22:59:34.739, 1541908774739
94, 3340.83, 16361.88, 0.00, 187500.00, -187500.02, -187500.02, -187500.02, -187500.02, 0.000, 0.000, 0.000, 22:59:34.739, 1541908774739
95, 3418.19, 16717.70, 0.00, 187500.00, -187500.02, -187500.02, -187500.02, -187500.02, 0.000, 0.000, 0.000, 22:59:34.740, 1541908774740
96, 3232.49, 16587.50, 0.00, 187500.00, -187500.02, -187500.02, -187500.02, -187500.02, 0.000, 0.000, 0.000, 22:59:34.740, 1541908774740
97, 3105.51, 16254.01, 0.00, 187500.00, -187500.02, -187500.02, -187500.02, -187500.02, 0.000, 0.000, 0.000, 22:59:34.740, 1541908774740
98, 3278.96, 16270.73, 0.00, 187500.00, -187500.02, -187500.02, -187500.02, -187500.02, 0.000, 0.000, 0.000, 22:59:34.740, 1541908774740
99, 3430.46, 16684.12, 0.00, 187500.00, -187500.02, -187500.02, -187500.02, -187500.02, 0.114, 0.974, 0.252, 22:59:34.740, 1541908774740
0, 0.00, 0.00, 0.00, 0.00, 0.00, 0.00, 0.00, 0.00, 0.000, 0.000, 0.000, 22:59:34.740, 1541908774740
1, 3775.28, 16993.65, 0.00, 0.00, -187500.02, -187500.02, -187500.02, -187500.02, 0.000, 0.000, 0.000, 22:59:34.747, 1541908774747
2, 3556.77, 16935.40, 0.00, 0.00, -187500.02, -187500.02, -187500.02, -187500.02, 0.000, 0.000, 0.000, 22:59:35.230, 1541908775230
3, 3329.14, 16588.14, 0.00, 0.00, -187500.02, -187500.02, -187500.02, -187500.02, 0.106, 0.970, 0.250, 22:59:35.230, 1541908775230
4, 3329.76, 16338.21, 0.00, 0.00, -187500.02, -187500.02, -187500.02, -187500.02, 0.000, 0.000, 0.000, 22:59:35.230, 1541908775230
5, 3566.89, 16724.74, 0.00, 0.00, -187500.02, -187500.02, -187500.02, -187500.02, 0.000, 0.000, 0.000, 22:59:35.230, 1541908775230
6, 3439.69, 16805.45, 0.00, 0.00, -187500.02, -187500.02, -187500.02, -187500.02, 0.000, 0.000, 0.000, 22:59:35.230, 1541908775230
7, 3232.67, 16523.84, 0.00, 0.00, -187500.02, -187500.02, -187500.02, -187500.02, 0.000, 0.000, 0.000, 22:59:35.230, 1541908775230
8, 3201.26, 16241.74, 0.00, 0.00, -187500.02, -187500.02, -187500.02, -187500.02, 0.000, 0.000, 0.000, 22:59:35.230, 1541908775230
9, 3468.72, 16577.04, 0.00, 0.00, -187500.02, -187500.02, -187500.02, -187500.02, 0.000, 0.000, 0.000, 22:59:35.230, 1541908775230
10, 3427.62, 16774.07, 0.00, 0.00, -187500.02, -187500.02, -187500.02, -187500.02, 0.000, 0.000, 0.000, 22:59:35.230, 1541908775230
11, 3230.54, 16546.97, 0.00, 0.00, -187500.02, -187500.02, -187500.02, -187500.02, 0.000, 0.000, 0.000, 22:59:35.230, 1541908775230
12, 3148.22, 16221.04, 0.00, 0.00, -187500.02, -187500.02, -187500.02, -187500.02, 0.084, 0.968, 0.246, 22:59:35.230, 1541908775230
13, 3401.18, 16452.18, 0.00, 0.00, -187500.02, -187500.02, -187500.02, -187500.02, 0.000, 0.000, 0.000, 22:59:35.230, 1541908775230
14, 3437.32, 16756.10, 0.00, 0.00, -187500.02, -187500.02, -187500.02, -187500.02, 0.000, 0.000, 0.000, 22:59:35.230, 1541908775230
15, 3228.37, 16571.76, 0.00, 0.00, -187500.02, -187500.02, -187500.02, -187500.02, 0.000, 0.000, 0.000, 22:59:35.230, 1541908775230
16, 3118.83, 16234.92, 0.00, 0.00, -187500.02, -187500.02, -187500.02, -187500.02, 0.000, 0.000, 0.000, 22:59:35.231, 1541908775231
17, 3334.95, 16345.52, 0.00, 0.00, -187500.02, -187500.02, -187500.02, -187500.02, 0.000, 0.000, 0.000, 22:59:35.231, 1541908775231
18, 3438.35, 16719.75, 0.00, 0.00, -187500.02, -187500.02, -187500.02, -187500.02, 0.000, 0.000, 0.000, 22:59:35.231, 1541908775231
19, 3242.25, 16594.11, 0.00, 0.00, -187500.02, -187500.02, -187500.02, -187500.02, 0.000, 0.000, 0.000, 22:59:35.231, 1541908775231
20, 3111.23, 16271.49, 0.00, 0.00, -187500.02, -187500.02, -187500.02, -187500.02, 0.000, 0.000, 0.000, 22:59:35.231, 1541908775231
21, 3268.29, 16255.62, 0.00, 0.00, -187500.02, -187500.02, -187500.02, -187500.02, 0.000, 0.000, 0.000, 22:59:35.231, 1541908775231
22, 3440.13, 16677.37, 0.00, 0.00, -187500.02, -187500.02, -187500.02, -187500.02, 0.056, 0.970, 0.236, 22:59:35.231, 1541908775231
23, 3261.79, 16622.41, 0.00, 0.00, -187500.02, -187500.02, -187500.02, -187500.02, 0.000, 0.000, 0.000, 22:59:35.231, 1541908775231
24, 3108.46, 16322.00, 0.00, 0.00, -187500.02, -187500.02, -187500.02, -187500.02, 0.000, 0.000, 0.000, 22:59:35.231, 1541908775231
25, 3204.37, 16191.07, 0.00, 0.00, -187500.02, -187500.02, -187500.02, -187500.02, 0.000, 0.000, 0.000, 22:59:35.231, 1541908775231
26, 3430.75, 16626.63, 0.00, 0.00, -187500.02, -187500.02, -187500.02, -187500.02, 0.000, 0.000, 0.000, 22:59:35.231, 1541908775231
27, 3296.64, 16670.73, 0.00, 0.00, -187500.02, -187500.02, -187500.02, -187500.02, 0.000, 0.000, 0.000, 22:59:35.231, 1541908775231
28, 3139.95, 16407.23, 0.00, 0.00, -187500.02, -187500.02, -187500.02, -187500.02, 0.000, 0.000, 0.000, 22:59:35.231, 1541908775231
29, 3153.25, 16165.85, 0.00, 0.00, -187500.02, -187500.02, -187500.02, -187500.02, 0.000, 0.000, 0.000, 22:59:35.231, 1541908775231
30, 3414.97, 16555.62, 0.00, 0.00, -187500.02, -187500.02, -187500.02, -187500.02, 0.000, 0.000, 0.000, 22:59:35.231, 1541908775231
31, 3321.72, 16681.98, 0.00, 0.00, -187500.02, -187500.02, -187500.02, -187500.02, 0.000, 0.000, 0.000, 22:59:35.231, 1541908775231
32, 3136.73, 16434.37, 0.00, 0.00, -187500.02, -187500.02, -187500.02, -187500.02, 0.050, 0.966, 0.236, 22:59:35.231, 1541908775231
33, 3104.41, 16139.34, 0.00, 0.00, -187500.02, -187500.02, -187500.02, -187500.02, 0.000, 0.000, 0.000, 22:59:35.231, 1541908775231
34, 3377.53, 16453.19, 0.00, 0.00, -187500.02, -187500.02, -187500.02, -187500.02, 0.000, 0.000, 0.000, 22:59:35.231, 1541908775231
35, 3353.79, 16685.87, 0.00, 0.00, -187500.02, -187500.02, -187500.02, -187500.02, 0.000, 0.000, 0.000, 22:59:35.232, 1541908775232
36, 3161.34, 16479.40, 0.00, 0.00, -187500.02, -187500.02, -187500.02, -187500.02, 0.000, 0.000, 0.000, 22:59:35.232, 1541908775232
37, 3072.67, 16143.01, 0.00, 0.00, -187500.02, -187500.02, -187500.02, -187500.02, 0.000, 0.000, 0.000, 22:59:35.232, 1541908775232
38, 3331.10, 16345.90, 0.00, 0.00, -187500.02, -187500.02, -187500.02, -187500.02, 0.000, 0.000, 0.000, 22:59:35.232, 1541908775232
39, 3387.23, 16667.96, 0.00, 0.00, -187500.02, -187500.02, -187500.02, -187500.02, 0.000, 0.000, 0.000, 22:59:35.232, 1541908775232
40, 3201.37, 16515.66, 0.00, 0.00, -187500.02, -187500.02, -187500.02, -187500.02, 0.000, 0.000, 0.000, 22:59:35.232, 1541908775232
41, 3100.92, 16202.26, 0.00, 0.00, -187500.02, -187500.02, -187500.02, -187500.02, 0.000, 0.000, 0.000, 22:59:35.232, 1541908775232
42, 3295.27, 16270.08, 0.00, 0.00, -187500.02, -187500.02, -187500.02, -187500.02, 0.046, 0.974, 0.234, 22:59:35.232, 1541908775232
43, 3424.35, 16659.49, 0.00, 0.00, -187500.02, -187500.02, -187500.02, -187500.02, 0.000, 0.000, 0.000, 22:59:35.232, 1541908775232
44, 3254.10, 16575.05, 0.00, 0.00, -187500.02, -187500.02, -187500.02, -187500.02, 0.000, 0.000, 0.000, 22:59:35.232, 1541908775232
45, 3114.16, 16256.56, 0.00, 0.00, -187500.02, -187500.02, -187500.02, -187500.02, 0.000, 0.000, 0.000, 22:59:35.232, 1541908775232
46, 3256.05, 16198.29, 0.00, 0.00, -187500.02, -187500.02, -187500.02, -187500.02, 0.000, 0.000, 0.000, 22:59:35.232, 1541908775232
47, 3465.06, 16643.47, 0.00, 0.00, -187500.02, -187500.02, -187500.02, -187500.02, 0.000, 0.000, 0.000, 22:59:35.232, 1541908775232
48, 3301.82, 16621.45, 0.00, 0.00, -187500.02, -187500.02, -187500.02, -187500.02, 0.000, 0.000, 0.000, 22:59:35.232, 1541908775232
49, 3144.67, 16324.55, 0.00, 0.00, -187500.02, -187500.02, -187500.02, -187500.02, 0.000, 0.000, 0.000, 22:59:35.232, 1541908775232
50, 3220.08, 16158.92, 0.00, 0.00, -187500.02, -187500.02, -187500.02, -187500.02, 0.000, 0.000, 0.000, 22:59:35.232, 1541908775232
51, 3475.63, 16594.85, 0.00, 0.00, -187500.02, -187500.02, -187500.02, -187500.02, 0.052, 0.982, 0.244, 22:59:35.232, 1541908775232
52, 3354.35, 16666.24, 0.00, 0.00, -187500.02, -187500.02, -187500.02, -187500.02, 0.000, 0.000, 0.000, 22:59:35.232, 1541908775232
53, 3188.39, 16410.27, 0.00, 0.00, -187500.02, -187500.02, -187500.02, -187500.02, 0.000, 0.000, 0.000, 22:59:35.232, 1541908775232
54, 3201.40, 16170.91, 0.00, 0.00, -187500.02, -187500.02, -187500.02, -187500.02, 0.000, 0.000, 0.000, 22:59:35.232, 1541908775232
55, 3478.27, 16550.97, 0.00, 0.00, -187500.02, -187500.02, -187500.02, -187500.02, 0.000, 0.000, 0.000, 22:59:35.233, 1541908775233
56, 3399.52, 16715.26, 0.00, 0.00, -187500.02, -187500.02, -187500.02, -187500.02, 0.000, 0.000, 0.000, 22:59:35.233, 1541908775233
57, 3210.14, 16489.96, 0.00, 0.00, -187500.02, -187500.02, -187500.02, -187500.02, 0.000, 0.000, 0.000, 22:59:35.233, 1541908775233
58, 3164.92, 16191.29, 0.00, 0.00, -187500.02, -187500.02, -187500.02, -187500.02, 0.000, 0.000, 0.000, 22:59:35.233, 1541908775233
59, 3434.12, 16474.38, 0.00, 0.00, -187500.02, -187500.02, -187500.02, -187500.02, 0.000, 0.000, 0.000, 22:59:35.233, 1541908775233
60, 3440.40, 16727.26, 0.00, 0.00, -187500.02, -187500.02, -187500.02, -187500.02, 0.000, 0.000, 0.000, 22:59:35.233, 1541908775233
61, 3249.81, 16530.86, 0.00, 0.00, -187500.02, -187500.02, -187500.02, -187500.02, 0.046, 0.962, 0.240, 22:59:35.233, 1541908775233
62, 3158.03, 16204.41, 0.00, 0.00, -187500.02, -187500.02, -187500.02, -187500.02, 0.000, 0.000, 0.000, 22:59:35.233, 1541908775233
63, 3406.36, 16383.18, 0.00, 0.00, -187500.02, -187500.02, -187500.02, -187500.02, 0.000, 0.000, 0.000, 22:59:35.233, 1541908775233
64, 3469.55, 16726.90, 0.00, 0.00, -187500.02, -187500.02, -187500.02, -187500.02, 0.000, 0.000, 0.000, 22:59:35.233, 1541908775233
65, 3277.95, 16587.36, 0.00, 0.00, -187500.02, -187500.02, -187500.02, -187500.02, 0.000, 0.000, 0.000, 22:59:35.233, 1541908775233
66, 3153.79, 16261.47, 0.00, 0.00, -187500.02, -187500.02, -187500.02, -187500.02, 0.000, 0.000, 0.000, 22:59:35.233, 1541908775233
67, 3334.28, 16301.10, 0.00, 0.00, -187500.02, -187500.02, -187500.02, -187500.02, 0.000, 0.000, 0.000, 22:59:35.233, 1541908775233
68, 3485.24, 16712.22, 0.00, 0.00, -187500.02, -187500.02, -187500.02, -187500.02, 0.000, 0.000, 0.000, 22:59:35.233, 1541908775233
69, 3306.25, 16635.35, 0.00, 0.00, -187500.02, -187500.02, -187500.02, -187500.02, 0.000, 0.000, 0.000, 22:59:35.233, 1541908775233
70, 3167.94, 16332.15, 0.00, 0.00, -187500.02, -187500.02, -187500.02, -187500.02, 0.000, 0.000, 0.000, 22:59:35.233, 1541908775233
71, 3294.58, 16251.66, 0.00, 0.00, -187500.02, -187500.02, -187500.02, -187500.02, 0.046, 0.964, 0.246, 22:59:35.234, 1541908775234
72, 3494.81, 16672.70, 0.00, 0.00, -187500.02, -187500.02, -187500.02, -187500.02, 0.000, 0.000, 0.000, 22:59:35.234, 1541908775234
73, 3347.31, 16673.02, 0.00, 0.00, -187500.02, -187500.02, -187500.02, -187500.02, 0.000, 0.000, 0.000, 22:59:35.234, 1541908775234
74, 3194.35, 16403.74, 0.00, 0.00, -187500.02, -187500.02, -187500.02, -187500.02, 0.000, 0.000, 0.000, 22:59:35.234, 1541908775234
75, 3239.71, 16212.05, 0.00, 0.00, -187500.02, -187500.02, -187500.02, -187500.02, 0.000, 0.000, 0.000, 22:59:35.234, 1541908775234
76, 3488.24, 16609.65, 0.00, 0.00, -187500.02, -187500.02, -187500.02, -187500.02, 0.000, 0.000, 0.000, 22:59:35.234, 1541908775234
77, 3393.75, 16707.44, 0.00, 0.00, -187500.02, -187500.02, -187500.02, -187500.02, 0.000, 0.000, 0.000, 22:59:35.234, 1541908775234
78, 3222.88, 16465.72, 0.00, 0.00, -187500.02, -187500.02, -187500.02, -187500.02, 0.000, 0.000, 0.000, 22:59:35.234, 1541908775234
79, 3207.86, 16215.83, 0.00, 0.00, -187500.02, -187500.02, -187500.02, -187500.02, 0.000, 0.000, 0.000, 22:59:35.235, 1541908775235
80, 3452.27, 16530.10, 0.00, 0.00, -187500.02, -187500.02, -187500.02, -187500.02, 0.000, 0.000, 0.000, 22:59:35.235, 1541908775235
81, 3418.32, 16725.36, 0.00, 0.00, -187500.02, -187500.02, -187500.02, -187500.02, 0.048, 0.972, 0.242, 22:59:35.235, 1541908775235
82, 3247.95, 16531.39, 0.00, 0.00, -187500.02, -187500.02, -187500.02, -187500.02, 0.000, 0.000, 0.000, 22:59:35.235, 1541908775235
83, 3183.92, 16235.95, 0.00, 0.00, -187500.02, -187500.02, -187500.02, -187500.02, 0.000, 0.000, 0.000, 22:59:35.235, 1541908775235
84, 3423.42, 16452.76, 0.00, 0.00, -187500.02, -187500.02, -187500.02, -187500.02, 0.000, 0.000, 0.000, 22:59:35.235, 1541908775235
85, 3451.24, 16724.74, 0.00, 0.00, -187500.02, -187500.02, -187500.02, -187500.02, 0.000, 0.000, 0.000, 22:59:35.235, 1541908775235
86, 3267.27, 16566.69, 0.00, 0.00, -187500.02, -187500.02, -187500.02, -187500.02, 0.000, 0.000, 0.000, 22:59:35.235, 1541908775235
87, 3173.57, 16268.00, 0.00, 0.00, -187500.02, -187500.02, -187500.02, -187500.02, 0.000, 0.000, 0.000, 22:59:35.235, 1541908775235
88, 3378.76, 16369.39, 0.00, 0.00, -187500.02, -187500.02, -187500.02, -187500.02, 0.000, 0.000, 0.000, 22:59:35.235, 1541908775235
89, 3463.87, 16705.49, 0.00, 0.00, -187500.02, -187500.02, -187500.02, -187500.02, 0.000, 0.000, 0.000, 22:59:35.235, 1541908775235
90, 3293.26, 16603.68, 0.00, 0.00, -187500.02, -187500.02, -187500.02, -187500.02, 0.000, 0.000, 0.000, 22:59:35.235, 1541908775235
91, 3177.50, 16310.09, 0.00, 0.00, -187500.02, -187500.02, -187500.02, -187500.02, 0.046, 0.968, 0.240, 22:59:35.235, 1541908775235
92, 3323.91, 16287.76, 0.00, 0.00, -187500.02, -187500.02, -187500.02, -187500.02, 0.000, 0.000, 0.000, 22:59:35.235, 1541908775235
93, 3481.46, 16683.86, 0.00, 0.00, -187500.02, -187500.02, -187500.02, -187500.02, 0.000, 0.000, 0.000, 22:59:35.235, 1541908775235
94, 3338.52, 16660.12, 0.00, 0.00, -187500.02, -187500.02, -187500.02, -187500.02, 0.000, 0.000, 0.000, 22:59:35.235, 1541908775235
95, 3194.60, 16376.76, 0.00, 0.00, -187500.02, -187500.02, -187500.02, -187500.02, 0.000, 0.000, 0.000, 22:59:35.235, 1541908775235
96, 3276.81, 16250.61, 0.00, 0.00, -187500.02, -187500.02, -187500.02, -187500.02, 0.000, 0.000, 0.000, 22:59:35.235, 1541908775235
97, 3495.21, 16664.14, 0.00, 0.00, -187500.02, -187500.02, -187500.02, -187500.02, 0.000, 0.000, 0.000, 22:59:35.236, 1541908775236
98, 3364.21, 16703.03, 0.00, 0.00, -187500.02, -187500.02, -187500.02, -187500.02, 0.000, 0.000, 0.000, 22:59:35.236, 1541908775236
99, 3202.69, 16436.42, 0.00, 0.00, -187500.02, -187500.02, -187500.02, -187500.02, 0.000, 0.000, 0.000, 22:59:35.236, 1541908775236
100, 3231.30, 16228.08, 0.00, 0.00, -187500.02, -187500.02, -187500.02, -187500.02, 0.044, 0.962, 0.240, 22:59:35.236, 1541908775236
101, 3487.79, 16615.91, 0.00, 0.00, -187500.02, -187500.02, -187500.02, -187500.02, 0.000, 0.000, 0.000, 22:59:35.236, 1541908775236
102, 3411.77, 16746.37, 0.00, 0.00, -187500.02, -187500.02, -187500.02, -187500.02, 0.000, 0.000, 0.000, 22:59:35.236, 1541908775236
103, 3240.82, 16519.10, 0.00, 0.00, -187500.02, -187500.02, -187500.02, -187500.02, 0.000, 0.000, 0.000, 22:59:35.236, 1541908775236
104, 3209.26, 16239.91, 0.00, 0.00, -187500.02, -187500.02, -187500.02, -187500.02, 0.000, 0.000, 0.000, 22:59:35.236, 1541908775236
105, 3467.36, 16542.50, 0.00, 0.00, -187500.02, -187500.02, -187500.02, -187500.02, 0.000, 0.000, 0.000, 22:59:35.236, 1541908775236
106, 3437.77, 16756.05, 0.00, 0.00, -187500.02, -187500.02, -187500.02, -187500.02, 0.000, 0.000, 0.000, 22:59:35.236, 1541908775236
107, 3257.30, 16559.07, 0.00, 0.00, -187500.02, -187500.02, -187500.02, -187500.02, 0.000, 0.000, 0.000, 22:59:35.236, 1541908775236
108, 3189.95, 16262.64, 0.00, 0.00, -187500.02, -187500.02, -187500.02, -187500.02, 0.000, 0.000, 0.000, 22:59:35.236, 1541908775236
109, 3437.94, 16476.83, 0.00, 0.00, -187500.02, -187500.02, -187500.02, -187500.02, 0.000, 0.000, 0.000, 22:59:35.236, 1541908775236
110, 3481.80, 16781.35, 0.00, 0.00, -187500.02, -187500.02, -187500.02, -187500.02, 0.040, 0.962, 0.244, 22:59:35.236, 1541908775236
111, 3294.45, 16633.47, 0.00, 0.00, -187500.02, -187500.02, -187500.02, -187500.02, 0.000, 0.000, 0.000, 22:59:35.236, 1541908775236
112, 3181.17, 16319.19, 0.00, 0.00, -187500.02, -187500.02, -187500.02, -187500.02, 0.000, 0.000, 0.000, 22:59:35.236, 1541908775236
113, 3371.11, 16385.01, 0.00, 0.00, -187500.02, -187500.02, -187500.02, -187500.02, 0.000, 0.000, 0.000, 22:59:35.236, 1541908775236
114, 3495.23, 16762.11, 0.00, 0.00, -187500.02, -187500.02, -187500.02, -187500.02, 0.000, 0.000, 0.000, 22:59:35.236, 1541908775236
115, 3331.66, 16683.10, 0.00, 0.00, -187500.02, -187500.02, -187500.02, -187500.02, 0.000, 0.000, 0.000, 22:59:35.236, 1541908775236
116, 3203.07, 16387.83, 0.00, 0.00, -187500.02, -187500.02, -187500.02, -187500.02, 0.000, 0.000, 0.000, 22:59:35.236, 1541908775236
117, 3316.51, 16323.90, 0.00, 0.00, -187500.02, -187500.02, -187500.02, -187500.02, 0.000, 0.000, 0.000, 22:59:35.236, 1541908775236
0, 0.00, 0.00, 0.00, 0.00, 0.00, 0.00, 0.00, 0.00, 0.052, 0.984, 0.258, 22:59:35.664, 1541908775664
1, 3199.03, 16225.38, 0.00, 0.00, 0.00, -187500.02, -187500.02, -187500.02, 0.000, 0.000, 0.000, 22:59:35.664, 1541908775664
2, 3455.65, 16656.83, 0.00, 0.00, 0.00, -187500.02, -187500.02, -187500.02, 0.000, 0.000, 0.000, 22:59:35.665, 1541908775665
3, 3355.80, 16733.74, 0.00, 0.00, 0.00, -187500.02, -187500.02, -187500.02, 0.000, 0.000, 0.000, 22:59:35.665, 1541908775665
4, 3189.95, 16485.66, 0.00, 0.00, 0.00, -187500.02, -187500.02, -187500.02, 0.000, 0.000, 0.000, 22:59:35.665, 1541908775665
5, 3218.56, 16278.46, 0.00, 0.00, 0.00, -187500.02, -187500.02, -187500.02, 0.000, 0.000, 0.000, 22:59:35.665, 1541908775665
6, 3453.90, 16621.63, 0.00, 0.00, 0.00, -187500.02, -187500.02, -187500.02, 0.044, 0.986, 0.260, 22:59:35.665, 1541908775665
7, 3384.17, 16768.48, 0.00, 0.00, 0.00, -187500.02, -187500.02, -187500.02, 0.000, 0.000, 0.000, 22:59:35.665, 1541908775665
8, 3217.31, 16549.32, 0.00, 0.00, 0.00, -187500.02, -187500.02, -187500.02, 0.000, 0.000, 0.000, 22:59:35.665, 1541908775665
9, 3183.94, 16277.17, 0.00, 0.00, 0.00, -187500.02, -187500.02, -187500.02, 0.000, 0.000, 0.000, 22:59:35.665, 1541908775665
10, 3443.31, 16565.86, 0.00, 0.00, 0.00, -187500.02, -187500.02, -187500.02, 0.000, 0.000, 0.000, 22:59:35.665, 1541908775665
11, 3440.43, 16810.50, 0.00, 0.00, 0.00, -187500.02, -187500.02, -187500.02, 0.000, 0.000, 0.000, 22:59:35.665, 1541908775665
12, 3253.77, 16622.68, 0.00, 0.00, 0.00, -187500.02, -187500.02, -187500.02, 0.000, 0.000, 0.000, 22:59:35.666, 1541908775666
13, 3160.13, 16304.73, 0.00, 0.00, 0.00, -187500.02, -187500.02, -187500.02, 0.000, 0.000, 0.000, 22:59:35.666, 1541908775666
14, 3394.81, 16483.61, 0.00, 0.00, 0.00, -187500.02, -187500.02, -187500.02, 0.000, 0.000, 0.000, 22:59:35.666, 1541908775666
15, 3452.41, 16796.24, 0.00, 0.00, 0.00, -187500.02, -187500.02, -187500.02, 0.038, 0.956, 0.252, 22:59:35.666, 1541908775666
16, 3287.63, 16678.56, 0.00, 0.00, 0.00, -187500.02, -187500.02, -187500.02, 0.000, 0.000, 0.000, 22:59:35.666, 1541908775666
17, 3151.13, 16347.24, 0.00, 0.00, 0.00, -187500.02, -187500.02, -187500.02, 0.000, 0.000, 0.000, 22:59:35.666, 1541908775666
18, 3323.73, 16391.94, 0.00, 0.00, 0.00, -187500.02, -187500.02, -187500.02, 0.000, 0.000, 0.000, 22:59:35.666, 1541908775666
19, 3468.86, 16791.05, 0.00, 0.00, 0.00, -187500.02, -187500.02, -187500.02, 0.000, 0.000, 0.000, 22:59:35.666, 1541908775666
20, 3306.38, 16720.31, 0.00, 0.00, 0.00, -187500.02, -187500.02, -187500.02, 0.000, 0.000, 0.000, 22:59:35.666, 1541908775666
21, 3162.64, 16413.91, 0.00, 0.00, 0.00, -187500.02, -187500.02, -187500.02, 0.000, 0.000, 0.000, 22:59:35.666, 1541908775666
22, 3288.63, 16350.81, 0.00, 0.00, 0.00, -187500.02, -187500.02, -187500.02, 0.000, 0.000, 0.000, 22:59:35.666, 1541908775666
23, 3470.87, 16752.25, 0.00, 0.00, 0.00, -187500.02, -187500.02, -187500.02, 0.000, 0.000, 0.000, 22:59:35.667, 1541908775667
24, 3330.54, 16749.86, 0.00, 0.00, 0.00, -187500.02, -187500.02, -187500.02, 0.000, 0.000, 0.000, 22:59:35.667, 1541908775667
25, 3173.88, 16460.58, 0.00, 0.00, 0.00, -187500.02, -187500.02, -187500.02, 0.034, 0.974, 0.260, 22:59:35.667, 1541908775667
26, 3227.77, 16279.69, 0.00, 0.00, 0.00, -187500.02, -187500.02, -187500.02, 0.000, 0.000, 0.000, 22:59:35.667, 1541908775667
27, 3480.46, 16699.08, 0.00, 0.00, 0.00, -187500.02, -187500.02, -187500.02, 0.000, 0.000, 0.000, 22:59:35.667, 1541908775667
28, 3369.66, 16773.31, 0.00, 0.00, 0.00, -187500.02, -187500.02, -187500.02, 0.000, 0.000, 0.000, 22:59:35.667, 1541908775667
29, 3187.00, 16506.90, 0.00, 0.00, 0.00, -187500.02, -187500.02, -187500.02, 0.000, 0.000, 0.000, 22:59:35.667, 1541908775667
30, 3180.18, 16253.90, 0.00, 0.00, 0.00, -187500.02, -187500.02, -187500.02, 0.000, 0.000, 0.000, 22:59:35.668, 1541908775668
31, 3449.16, 16619.33, 0.00, 0.00, 0.00, -187500.02, -187500.02, -187500.02, 0.000, 0.000, 0.000, 22:59:35.668, 1541908775668
32, 3389.73, 16784.84, 0.00, 0.00, 0.00, -187500.02, -187500.02, -187500.02, 0.000, 0.000, 0.000, 22:59:35.668, 1541908775668
33, 3210.90, 16562.22, 0.00, 0.00, 0.00, -187500.02, -187500.02, -187500.02, 0.000, 0.000, 0.000, 22:59:35.669, 1541908775669
34, 3130.03, 16240.58, 0.00, 0.00, 0.00, -187500.02, -187500.02, -187500.02, 0.000, 0.000, 0.000, 22:59:35.669, 1541908775669
35, 3385.37, 16513.27, 0.00, 0.00, 0.00, -187500.02, -187500.02, -187500.02, 0.032, 0.968, 0.256, 22:59:35.669, 1541908775669
36, 3399.52, 16778.04, 0.00, 0.00, 0.00, -187500.02, -187500.02, -187500.02, 0.000, 0.000, 0.000, 22:59:35.669, 1541908775669
37, 3222.45, 16599.03, 0.00, 0.00, 0.00, -187500.02, -187500.02, -187500.02, 0.000, 0.000, 0.000, 22:59:35.669, 1541908775669
38, 3127.97, 16276.56, 0.00, 0.00, 0.00, -187500.02, -187500.02, -187500.02, 0.000, 0.000, 0.000, 22:59:35.669, 1541908775669
39, 3350.73, 16433.36, 0.00, 0.00, 0.00, -187500.02, -187500.02, -187500.02, 0.000, 0.000, 0.000, 22:59:35.669, 1541908775669
40, 3416.60, 16770.69, 0.00, 0.00, 0.00, -187500.02, -187500.02, -187500.02, 0.000, 0.000, 0.000, 22:59:35.670, 1541908775670
41, 3221.94, 16627.64, 0.00, 0.00, 0.00, -187500.02, -187500.02, -187500.02, 0.000, 0.000, 0.000, 22:59:35.670, 1541908775670
42, 3117.33, 16314.11, 0.00, 0.00, 0.00, -187500.02, -187500.02, -187500.02, 0.000, 0.000, 0.000, 22:59:35.670, 1541908775670
43, 3296.57, 16346.30, 0.00, 0.00, 0.00, -187500.02, -187500.02, -187500.02, 0.000, 0.000, 0.000, 22:59:35.670, 1541908775670
44, 3443.20, 16750.69, 0.00, 0.00, 0.00, -187500.02, -187500.02, -187500.02, 0.000, 0.000, 0.000, 22:59:35.670, 1541908775670
45, 3267.31, 16673.44, 0.00, 0.00, 0.00, -187500.02, -187500.02, -187500.02, 0.032, 0.958, 0.238, 22:59:35.670, 1541908775670
46, 3116.12, 16356.89, 0.00, 0.00, 0.00, -187500.02, -187500.02, -187500.02, 0.000, 0.000, 0.000, 22:59:35.671, 1541908775671
47, 3230.70, 16271.67, 0.00, 0.00, 0.00, -187500.02, -187500.02, -187500.02, 0.000, 0.000, 0.000, 22:59:35.671, 1541908775671
48, 3440.11, 16706.70, 0.00, 0.00, 0.00, -187500.02, -187500.02, -187500.02, 0.000, 0.000, 0.000, 22:59:35.671, 1541908775671
49, 3298.92, 16707.44, 0.00, 0.00, 0.00, -187500.02, -187500.02, -187500.02, 0.000, 0.000, 0.000, 22:59:35.671, 1541908775671
50, 3143.08, 16417.11, 0.00, 0.00, 0.00, -187500.02, -187500.02, -187500.02, 0.000, 0.000, 0.000, 22:59:35.671, 1541908775671
51, 3186.31, 16221.24, 0.00, 0.00, 0.00, -187500.02, -187500.02, -187500.02, 0.000, 0.000, 0.000, 22:59:35.671, 1541908775671
52, 3439.51, 16641.25, 0.00, 0.00, 0.00, -187500.02, -187500.02, -187500.02, 0.000, 0.000, 0.000, 22:59:35.671, 1541908775671
53, 3326.81, 16724.89, 0.00, 0.00, 0.00, -187500.02, -187500.02, -187500.02, 0.000, 0.000, 0.000, 22:59:35.671, 1541908775671
54, 3158.88, 16470.20, 0.00, 0.00, 0.00, -187500.02, -187500.02, -187500.02, 0.032, 0.972, 0.224, 22:59:35.671, 1541908775671
55, 3161.90, 16209.69, 0.00, 0.00, 0.00, -187500.02, -187500.02, -187500.02, 0.000, 0.000, 0.000, 22:59:35.672, 1541908775672
56, 3438.88, 16579.47, 0.00, 0.00, 0.00, -187500.02, -187500.02, -187500.02, 0.000, 0.000, 0.000, 22:59:35.672, 1541908775672
57, 3374.38, 16759.92, 0.00, 0.00, 0.00, -187500.02, -187500.02, -187500.02, 0.000, 0.000, 0.000, 22:59:35.672, 1541908775672
58, 3180.50, 16533.58, 0.00, 0.00, 0.00, -187500.02, -187500.02, -187500.02, 0.000, 0.000, 0.000, 22:59:35.672, 1541908775672
59, 3133.76, 16234.29, 0.00, 0.00, 0.00, -187500.02, -187500.02, -187500.02, 0.000, 0.000, 0.000, 22:59:35.672, 1541908775672
60, 3381.86, 16478.31, 0.00, 0.00, 0.00, -187500.02, -187500.02, -187500.02, 0.000, 0.000, 0.000, 22:59:35.672, 1541908775672
61, 3405.60, 16770.47, 0.00, 0.00, 0.00, -187500.02, -187500.02, -187500.02, 0.000, 0.000, 0.000, 22:59:35.672, 1541908775672
62, 3224.24, 16598.47, 0.00, 0.00, 0.00, -187500.02, -187500.02, -187500.02, 0.000, 0.000, 0.000, 22:59:35.672, 1541908775672
63, 3111.01, 16251.53, 0.00, 0.00, 0.00, -187500.02, -187500.02, -187500.02, 0.000, 0.000, 0.000, 22:59:35.672, 1541908775672
64, 3343.20, 16392.57, 0.00, 0.00, 0.00, -187500.02, -187500.02, -187500.02, 0.024, 0.982, 0.220, 22:59:35.672, 1541908775672
65, 3437.43, 16758.40, 0.00, 0.00, 0.00, -187500.02, -187500.02, -187500.02, 0.000, 0.000, 0.000, 22:59:35.672, 1541908775672
66, 3247.10, 16630.77, 0.00, 0.00, 0.00, -187500.02, -187500.02, -187500.02, 0.000, 0.000, 0.000, 22:59:35.673, 1541908775673
67, 3120.73, 16310.29, 0.00, 0.00, 0.00, -187500.02, -187500.02, -187500.02, 0.000, 0.000, 0.000, 22:59:35.673, 1541908775673
68, 3294.85, 16316.46, 0.00, 0.00, 0.00, -187500.02, -187500.02, -187500.02, 0.000, 0.000, 0.000, 22:59:35.673, 1541908775673
69, 3452.03, 16729.52, 0.00, 0.00, 0.00, -187500.02, -187500.02, -187500.02, 0.000, 0.000, 0.000, 22:59:35.673, 1541908775673
70, 3285.62, 16675.92, 0.00, 0.00, 0.00, -187500.02, -187500.02, -187500.02, 0.000, 0.000, 0.000, 22:59:35.673, 1541908775673
71, 3130.61, 16364.52, 0.00, 0.00, 0.00, -187500.02, -187500.02, -187500.02, 0.000, 0.000, 0.000, 22:59:35.673, 1541908775673
72, 3221.31, 16233.96, 0.00, 0.00, 0.00, -187500.02, -187500.02, -187500.02, 0.000, 0.000, 0.000, 22:59:35.673, 1541908775673
73, 3457.14, 16678.04, 0.00, 0.00, 0.00, -187500.02, -187500.02, -187500.02, 0.000, 0.000, 0.000, 22:59:35.673, 1541908775673
74, 3329.61, 16708.55, 0.00, 0.00, 0.00, -187500.02, -187500.02, -187500.02, 0.036, 0.984, 0.224, 22:59:35.673, 1541908775673
75, 3166.04, 16425.34, 0.00, 0.00, 0.00, -187500.02, -187500.02, -187500.02, 0.000, 0.000, 0.000, 22:59:35.673, 1541908775673
76, 3188.03, 16201.68, 0.00, 0.00, 0.00, -187500.02, -187500.02, -187500.02, 0.000, 0.000, 0.000, 22:59:35.673, 1541908775673
77, 3465.68, 16629.34, 0.00, 0.00, 0.00, -187500.02, -187500.02, -187500.02, 0.000, 0.000, 0.000, 22:59:35.674, 1541908775674
78, 3380.08, 16756.74, 0.00, 0.00, 0.00, -187500.02, -187500.02, -187500.02, 0.000, 0.000, 0.000, 22:59:35.674, 1541908775674
79, 3202.96, 16508.84, 0.00, 0.00, 0.00, -187500.02, -187500.02, -187500.02, 0.000, 0.000, 0.000, 22:59:35.674, 1541908775674
80, 3180.12, 16227.79, 0.00, 0.00, 0.00, -187500.02, -187500.02, -187500.02, 0.000, 0.000, 0.000, 22:59:35.674, 1541908775674
81, 3448.74, 16564.56, 0.00, 0.00, 0.00, -187500.02, -187500.02, -187500.02, 0.000, 0.000, 0.000, 22:59:35.674, 1541908775674
82, 3409.22, 16776.17, 0.00, 0.00, 0.00, -187500.02, -187500.02, -187500.02, 0.000, 0.000, 0.000, 22:59:35.674, 1541908775674
83, 3218.16, 16560.63, 0.00, 0.00, 0.00, -187500.02, -187500.02, -187500.02, 0.000, 0.000, 0.000, 22:59:35.674, 1541908775674
84, 3152.22, 16248.91, 0.00, 0.00, 0.00, -187500.02, -187500.02, -187500.02, 0.036, 0.980, 0.228, 22:59:35.674, 1541908775674
85, 3406.29, 16478.04, 0.00, 0.00, 0.00, -187500.02, -187500.02, -187500.02, 0.000, 0.000, 0.000, 22:59:35.675, 1541908775675
86, 3445.25, 16790.81, 0.00, 0.00, 0.00, -187500.02, -187500.02, -187500.02, 0.000, 0.000, 0.000, 22:59:35.675, 1541908775675
87, 3249.76, 16621.00, 0.00, 0.00, 0.00, -187500.02, -187500.02, -187500.02, 0.000, 0.000, 0.000, 22:59:35.675, 1541908775675
88, 3140.11, 16285.93, 0.00, 0.00, 0.00, -187500.02, -187500.02, -187500.02, 0.000, 0.000, 0.000, 22:59:35.675, 1541908775675
89, 3348.54, 16393.42, 0.00, 0.00, 0.00, -187500.02, -187500.02, -187500.02, 0.000, 0.000, 0.000, 22:59:35.675, 1541908775675
90, 3457.99, 16780.33, 0.00, 0.00, 0.00, -187500.02, -187500.02, -187500.02, 0.000, 0.000, 0.000, 22:59:35.675, 1541908775675
91, 3277.24, 16675.00, 0.00, 0.00, 0.00, -187500.02, -187500.02, -187500.02, 0.000, 0.000, 0.000, 22:59:35.675, 1541908775675
