%OpenBCI Raw EEG Data
%Number of channels = 8
%Sample Rate = 250.0 Hz
%First Column = SampleIndex
%Last Column = Timestamp 
%Other Columns = EEG data in microvolts followed by Accel Data (in G) interleaved with Aux Data
0, 30172.55, 20681.62, 187500.00, 187500.00, 187500.00, 187500.00, 187500.00, 187500.00, 0.042, 0.240, 0.810, 22:13:02.892, 1541905982892
1, 30311.85, 20801.00, 187500.00, 187500.00, 187500.00, 187500.00, 187500.00, 187500.00, 0.000, 0.000, 0.000, 22:13:02.893, 1541905982893
2, 29636.98, 20481.04, 187500.00, 187500.00, 187500.00, 187500.00, 187500.00, 187500.00, 0.000, 0.000, 0.000, 22:13:02.894, 1541905982894
3, 29442.74, 20319.95, 187500.00, 187500.00, 187500.00, 187500.00, 187500.00, 187500.00, 0.000, 0.000, 0.000, 22:13:02.895, 1541905982895
4, 29986.07, 20525.36, 187500.00, 187500.00, 187500.00, 187500.00, 187500.00, 187500.00, 0.000, 0.000, 0.000, 22:13:02.895, 1541905982895
5, 30352.06, 20765.28, 187500.00, 187500.00, 187500.00, 187500.00, 187500.00, 187500.00, 0.000, 0.000, 0.000, 22:13:02.895, 1541905982895
6, 29687.52, 20472.05, 187500.00, 187500.00, 187500.00, 187500.00, 187500.00, 187500.00, 0.000, 0.000, 0.000, 22:13:02.895, 1541905982895
7, 29371.04, 20261.34, 187500.00, 187500.00, 187500.00, 187500.00, 187500.00, 187500.00, 0.040, 0.472, 0.724, 22:13:02.895, 1541905982895
8, 29804.44, 20412.24, 187500.00, 187500.00, 187500.00, 187500.00, 187500.00, 187500.00, 0.000, 0.000, 0.000, 22:13:02.895, 1541905982895
9, 30339.56, 20715.71, 187500.00, 187500.00, 187500.00, 187500.00, 187500.00, 187500.00, 0.000, 0.000, 0.000, 22:13:02.895, 1541905982895
10, 29765.75, 20505.58, 187500.00, 187500.00, 187500.00, 187500.00, 187500.00, 187500.00, 0.000, 0.000, 0.000, 22:13:02.895, 1541905982895
11, 29346.01, 20255.80, 187500.00, 187500.00, 187500.00, 187500.00, 187500.00, 187500.00, 0.000, 0.000, 0.000, 22:13:02.897, 1541905982897
12, 29680.84, 20357.45, 187500.00, 187500.00, 187500.00, 187500.00, 187500.00, 187500.00, 0.000, 0.000, 0.000, 22:13:02.898, 1541905982898
13, 30367.12, 20706.46, 187500.00, 187500.00, 187500.00, 187500.00, 187500.00, 187500.00, 0.000, 0.000, 0.000, 22:13:02.898, 1541905982898
14, 29954.49, 20610.07, 187500.00, 187500.00, 187500.00, 187500.00, 187500.00, 187500.00, 0.000, 0.000, 0.000, 22:13:02.898, 1541905982898
15, 29391.54, 20299.79, 187500.00, 187500.00, 187500.00, 187500.00, 187500.00, 187500.00, 0.000, 0.000, 0.000, 22:13:02.899, 1541905982899
16, 29579.98, 20310.49, 187500.00, 187500.00, 187500.00, 187500.00, 187500.00, 187500.00, 0.000, 0.000, 0.000, 22:13:02.899, 1541905982899
17, 30311.69, 20645.72, 187500.00, 187500.00, 187500.00, 187500.00, 187500.00, 187500.00, 0.034, 0.596, 0.688, 22:13:02.899, 1541905982899
18, 30089.65, 20653.03, 187500.00, 187500.00, 187500.00, 187500.00, 187500.00, 187500.00, 0.000, 0.000, 0.000, 22:13:02.899, 1541905982899
19, 29424.77, 20313.64, 187500.00, 187500.00, 187500.00, 187500.00, 187500.00, 187500.00, 0.000, 0.000, 0.000, 22:13:02.899, 1541905982899
20, 29463.49, 20260.43, 187500.00, 187500.00, 187500.00, 187500.00, 187500.00, 187500.00, 0.000, 0.000, 0.000, 22:13:02.899, 1541905982899
21, 30193.58, 20588.53, 187500.00, 187500.00, 187500.00, 187500.00, 187500.00, 187500.00, 0.000, 0.000, 0.000, 22:13:02.900, 1541905982900
22, 30204.54, 20707.84, 187500.00, 187500.00, 187500.00, 187500.00, 187500.00, 187500.00, 0.000, 0.000, 0.000, 22:13:02.900, 1541905982900
23, 29504.75, 20382.71, 187500.00, 187500.00, 187500.00, 187500.00, 187500.00, 187500.00, 0.000, 0.000, 0.000, 22:13:02.900, 1541905982900
24, 29423.46, 20262.84, 187500.00, 187500.00, 187500.00, 187500.00, 187500.00, 187500.00, 0.000, 0.000, 0.000, 22:13:02.900, 1541905982900
25, 30079.66, 20536.09, 187500.00, 187500.00, 187500.00, 187500.00, 187500.00, 187500.00, 0.000, 0.000, 0.000, 22:13:02.900, 1541905982900
26, 30306.82, 20740.27, 187500.00, 187500.00, 187500.00, 187500.00, 187500.00, 187500.00, 0.000, 0.000, 0.000, 22:13:02.900, 1541905982900
27, 29595.56, 20430.63, 187500.00, 187500.00, 187500.00, 187500.00, 187500.00, 187500.00, 0.028, 0.650, 0.674, 22:13:02.901, 1541905982901
28, 29351.30, 20237.56, 187500.00, 187500.00, 187500.00, 187500.00, 187500.00, 187500.00, 0.000, 0.000, 0.000, 22:13:02.901, 1541905982901
29, 29889.04, 20443.20, 187500.00, 187500.00, 187500.00, 187500.00, 187500.00, 187500.00, 0.000, 0.000, 0.000, 22:13:02.901, 1541905982901
30, 30325.15, 20735.40, 187500.00, 187500.00, 187500.00, 187500.00, 187500.00, 187500.00, 0.000, 0.000, 0.000, 22:13:02.901, 1541905982901
31, 29670.33, 20474.20, 187500.00, 187500.00, 187500.00, 187500.00, 187500.00, 187500.00, 0.000, 0.000, 0.000, 22:13:02.901, 1541905982901
32, 29311.27, 20234.27, 187500.00, 187500.00, 187500.00, 187500.00, 187500.00, 187500.00, 0.000, 0.000, 0.000, 22:13:02.901, 1541905982901
33, 29727.77, 20358.57, 187500.00, 187500.00, 187500.00, 187500.00, 187500.00, 187500.00, 0.000, 0.000, 0.000, 22:13:02.901, 1541905982901
34, 30332.61, 20696.26, 187500.00, 187500.00, 187500.00, 187500.00, 187500.00, 187500.00, 0.000, 0.000, 0.000, 22:13:02.901, 1541905982901
35, 29773.66, 20519.88, 187500.00, 187500.00, 187500.00, 187500.00, 187500.00, 187500.00, 0.000, 0.000, 0.000, 22:13:02.901, 1541905982901
36, 29287.09, 20225.18, 187500.00, 187500.00, 187500.00, 187500.00, 187500.00, 187500.00, 0.000, 0.000, 0.000, 22:13:02.901, 1541905982901
37, 29574.62, 20278.69, 187500.00, 187500.00, 187500.00, 187500.00, 187500.00, 187500.00, 0.028, 0.662, 0.672, 22:13:02.902, 1541905982902
38, 30281.99, 20645.99, 187500.00, 187500.00, 187500.00, 187500.00, 187500.00, 187500.00, 0.000, 0.000, 0.000, 22:13:02.902, 1541905982902
39, 29880.53, 20560.92, 187500.00, 187500.00, 187500.00, 187500.00, 187500.00, 187500.00, 0.000, 0.000, 0.000, 22:13:02.902, 1541905982902
40, 29303.00, 20239.68, 187500.00, 187500.00, 187500.00, 187500.00, 187500.00, 187500.00, 0.000, 0.000, 0.000, 22:13:02.902, 1541905982902
41, 29472.63, 20246.52, 187500.00, 187500.00, 187500.00, 187500.00, 187500.00, 187500.00, 0.000, 0.000, 0.000, 22:13:02.902, 1541905982902
42, 30202.44, 20587.63, 187500.00, 187500.00, 187500.00, 187500.00, 187500.00, 187500.00, 0.000, 0.000, 0.000, 22:13:02.902, 1541905982902
43, 30006.95, 20593.09, 187500.00, 187500.00, 187500.00, 187500.00, 187500.00, 187500.00, 0.000, 0.000, 0.000, 22:13:02.902, 1541905982902
44, 29361.16, 20251.06, 187500.00, 187500.00, 187500.00, 187500.00, 187500.00, 187500.00, 0.000, 0.000, 0.000, 22:13:02.902, 1541905982902
45, 29377.93, 20181.54, 187500.00, 187500.00, 187500.00, 187500.00, 187500.00, 187500.00, 0.000, 0.000, 0.000, 22:13:02.902, 1541905982902
46, 30077.04, 20483.90, 187500.00, 187500.00, 187500.00, 187500.00, 187500.00, 187500.00, 0.000, 0.000, 0.000, 22:13:02.906, 1541905982906
47, 30134.49, 20622.14, 187500.00, 187500.00, 187500.00, 187500.00, 187500.00, 187500.00, 0.022, 0.664, 0.672, 22:13:02.906, 1541905982906
48, 29418.20, 20283.40, 187500.00, 187500.00, 187500.00, 187500.00, 187500.00, 187500.00, 0.000, 0.000, 0.000, 22:13:02.906, 1541905982906
49, 29285.84, 20125.29, 187500.00, 187500.00, 187500.00, 187500.00, 187500.00, 187500.00, 0.000, 0.000, 0.000, 22:13:02.906, 1541905982906
50, 29922.75, 20369.41, 187500.00, 187500.00, 187500.00, 187500.00, 187500.00, 187500.00, 0.000, 0.000, 0.000, 22:13:02.906, 1541905982906
51, 30219.60, 20614.12, 187500.00, 187500.00, 187500.00, 187500.00, 187500.00, 187500.00, 0.000, 0.000, 0.000, 22:13:02.906, 1541905982906
52, 29494.53, 20278.40, 187500.00, 187500.00, 187500.00, 187500.00, 187500.00, 187500.00, 0.000, 0.000, 0.000, 22:13:02.906, 1541905982906
53, 29247.70, 20074.06, 187500.00, 187500.00, 187500.00, 187500.00, 187500.00, 187500.00, 0.000, 0.000, 0.000, 22:13:02.906, 1541905982906
54, 29774.18, 20274.80, 187500.00, 187500.00, 187500.00, 187500.00, 187500.00, 187500.00, 0.000, 0.000, 0.000, 22:13:02.907, 1541905982907
55, 30266.45, 20589.87, 187500.00, 187500.00, 187500.00, 187500.00, 187500.00, 187500.00, 0.000, 0.000, 0.000, 22:13:02.907, 1541905982907
56, 29592.01, 20319.50, 187500.00, 187500.00, 187500.00, 187500.00, 187500.00, 187500.00, 0.000, 0.000, 0.000, 22:13:02.907, 1541905982907
57, 29180.13, 20033.20, 187500.00, 187500.00, 187500.00, 187500.00, 187500.00, 187500.00, 0.000, 0.000, 0.000, 22:13:02.907, 1541905982907
58, 29581.59, 20144.51, 187500.00, 187500.00, 187500.00, 187500.00, 187500.00, 187500.00, 0.026, 0.666, 0.666, 22:13:02.907, 1541905982907
59, 30243.03, 20508.42, 187500.00, 187500.00, 187500.00, 187500.00, 187500.00, 187500.00, 0.000, 0.000, 0.000, 22:13:02.907, 1541905982907
60, 29698.56, 20340.56, 187500.00, 187500.00, 187500.00, 187500.00, 187500.00, 187500.00, 0.000, 0.000, 0.000, 22:13:02.907, 1541905982907
61, 29180.78, 20022.38, 187500.00, 187500.00, 187500.00, 187500.00, 187500.00, 187500.00, 0.000, 0.000, 0.000, 22:13:02.907, 1541905982907
62, 29463.60, 20082.82, 187500.00, 187500.00, 187500.00, 187500.00, 187500.00, 187500.00, 0.000, 0.000, 0.000, 22:13:02.907, 1541905982907
63, 30188.06, 20434.75, 187500.00, 187500.00, 187500.00, 187500.00, 187500.00, 187500.00, 0.000, 0.000, 0.000, 22:13:02.907, 1541905982907
64, 29846.15, 20383.16, 187500.00, 187500.00, 187500.00, 187500.00, 187500.00, 187500.00, 0.000, 0.000, 0.000, 22:13:02.908, 1541905982908
65, 29218.11, 20032.17, 187500.00, 187500.00, 187500.00, 187500.00, 187500.00, 187500.00, 0.000, 0.000, 0.000, 22:13:02.908, 1541905982908
66, 29344.58, 19997.97, 187500.00, 187500.00, 187500.00, 187500.00, 187500.00, 187500.00, 0.000, 0.000, 0.000, 22:13:02.908, 1541905982908
67, 30088.31, 20341.94, 187500.00, 187500.00, 187500.00, 187500.00, 187500.00, 187500.00, 0.000, 0.000, 0.000, 22:13:02.908, 1541905982908
68, 29961.15, 20416.91, 187500.00, 187500.00, 187500.00, 187500.00, 187500.00, 187500.00, 0.038, 0.682, 0.666, 22:13:02.908, 1541905982908
69, 29259.84, 20066.48, 187500.00, 187500.00, 187500.00, 187500.00, 187500.00, 187500.00, 0.000, 0.000, 0.000, 22:13:02.908, 1541905982908
70, 29251.59, 19970.39, 187500.00, 187500.00, 187500.00, 187500.00, 187500.00, 187500.00, 0.000, 0.000, 0.000, 22:13:02.908, 1541905982908
71, 29961.98, 20264.34, 187500.00, 187500.00, 187500.00, 187500.00, 187500.00, 187500.00, 0.000, 0.000, 0.000, 22:13:02.908, 1541905982908
72, 30076.39, 20454.93, 187500.00, 187500.00, 187500.00, 187500.00, 187500.00, 187500.00, 0.000, 0.000, 0.000, 22:13:02.908, 1541905982908
73, 29328.37, 20102.33, 187500.00, 187500.00, 187500.00, 187500.00, 187500.00, 187500.00, 0.000, 0.000, 0.000, 22:13:02.908, 1541905982908
74, 29159.24, 19922.29, 187500.00, 187500.00, 187500.00, 187500.00, 187500.00, 187500.00, 0.000, 0.000, 0.000, 22:13:02.909, 1541905982909
75, 29790.52, 20175.53, 187500.00, 187500.00, 187500.00, 187500.00, 187500.00, 187500.00, 0.000, 0.000, 0.000, 22:13:02.909, 1541905982909
76, 30148.95, 20461.39, 187500.00, 187500.00, 187500.00, 187500.00, 187500.00, 187500.00, 0.000, 0.000, 0.000, 22:13:02.909, 1541905982909
77, 29447.35, 20185.26, 187500.00, 187500.00, 187500.00, 187500.00, 187500.00, 187500.00, 0.000, 0.000, 0.000, 22:13:02.909, 1541905982909
78, 29158.43, 19967.39, 187500.00, 187500.00, 187500.00, 187500.00, 187500.00, 187500.00, 0.042, 0.680, 0.666, 22:13:02.909, 1541905982909
79, 29674.71, 20158.34, 187500.00, 187500.00, 187500.00, 187500.00, 187500.00, 187500.00, 0.000, 0.000, 0.000, 22:13:02.909, 1541905982909
80, 30218.57, 20495.45, 187500.00, 187500.00, 187500.00, 187500.00, 187500.00, 187500.00, 0.000, 0.000, 0.000, 22:13:02.909, 1541905982909
81, 29579.85, 20274.08, 187500.00, 187500.00, 187500.00, 187500.00, 187500.00, 187500.00, 0.000, 0.000, 0.000, 22:13:02.909, 1541905982909
82, 29152.28, 19988.14, 187500.00, 187500.00, 187500.00, 187500.00, 187500.00, 187500.00, 0.000, 0.000, 0.000, 22:13:02.909, 1541905982909
83, 29529.43, 20085.08, 187500.00, 187500.00, 187500.00, 187500.00, 187500.00, 187500.00, 0.000, 0.000, 0.000, 22:13:02.910, 1541905982910
84, 30197.88, 20448.56, 187500.00, 187500.00, 187500.00, 187500.00, 187500.00, 187500.00, 0.000, 0.000, 0.000, 22:13:02.910, 1541905982910
85, 29708.22, 20338.01, 187500.00, 187500.00, 187500.00, 187500.00, 187500.00, 187500.00, 0.000, 0.000, 0.000, 22:13:02.910, 1541905982910
86, 29173.94, 20019.59, 187500.00, 187500.00, 187500.00, 187500.00, 187500.00, 187500.00, 0.000, 0.000, 0.000, 22:13:02.910, 1541905982910
87, 29402.51, 20029.46, 187500.00, 187500.00, 187500.00, 187500.00, 187500.00, 187500.00, 0.000, 0.000, 0.000, 22:13:02.911, 1541905982911
88, 30143.18, 20399.79, 187500.00, 187500.00, 187500.00, 187500.00, 187500.00, 187500.00, 0.044, 0.668, 0.668, 22:13:02.911, 1541905982911
89, 29848.41, 20393.24, 187500.00, 187500.00, 187500.00, 187500.00, 187500.00, 187500.00, 0.000, 0.000, 0.000, 22:13:02.911, 1541905982911
90, 29186.75, 20022.67, 187500.00, 187500.00, 187500.00, 187500.00, 187500.00, 187500.00, 0.000, 0.000, 0.000, 22:13:02.911, 1541905982911
91, 29292.09, 19981.86, 187500.00, 187500.00, 187500.00, 187500.00, 187500.00, 187500.00, 0.000, 0.000, 0.000, 22:13:02.911, 1541905982911
92, 30039.69, 20313.44, 187500.00, 187500.00, 187500.00, 187500.00, 187500.00, 187500.00, 0.000, 0.000, 0.000, 22:13:02.911, 1541905982911
93, 29954.78, 20414.79, 187500.00, 187500.00, 187500.00, 187500.00, 187500.00, 187500.00, 0.000, 0.000, 0.000, 22:13:02.911, 1541905982911
94, 29237.62, 20076.07, 187500.00, 187500.00, 187500.00, 187500.00, 187500.00, 187500.00, 0.000, 0.000, 0.000, 22:13:02.911, 1541905982911
95, 29170.25, 19946.88, 187500.00, 187500.00, 187500.00, 187500.00, 187500.00, 187500.00, 0.000, 0.000, 0.000, 22:13:02.911, 1541905982911
96, 29865.89, 20235.82, 187500.00, 187500.00, 187500.00, 187500.00, 187500.00, 187500.00, 0.000, 0.000, 0.000, 22:13:02.912, 1541905982912
97, 30049.26, 20456.09, 187500.00, 187500.00, 187500.00, 187500.00, 187500.00, 187500.00, 0.000, 0.000, 0.000, 22:13:02.912, 1541905982912
98, 29301.95, 20116.81, 187500.00, 187500.00, 187500.00, 187500.00, 187500.00, 187500.00, 0.048, 0.668, 0.672, 22:13:02.912, 1541905982912
99, 29114.98, 19942.07, 187500.00, 187500.00, 187500.00, 187500.00, 187500.00, 187500.00, 0.000, 0.000, 0.000, 22:13:02.912, 1541905982912
100, 29717.74, 20161.25, 187500.00, 187500.00, 187500.00, 187500.00, 187500.00, 187500.00, 0.000, 0.000, 0.000, 22:13:02.912, 1541905982912
101, 30107.82, 20443.31, 187500.00, 187500.00, 187500.00, 187500.00, 187500.00, 187500.00, 0.000, 0.000, 0.000, 22:13:02.912, 1541905982912
102, 29417.11, 20178.97, 187500.00, 187500.00, 187500.00, 187500.00, 187500.00, 187500.00, 0.000, 0.000, 0.000, 22:13:02.912, 1541905982912
103, 29084.80, 19928.55, 187500.00, 187500.00, 187500.00, 187500.00, 187500.00, 187500.00, 0.000, 0.000, 0.000, 22:13:02.916, 1541905982916
104, 29564.09, 20082.44, 187500.00, 187500.00, 187500.00, 187500.00, 187500.00, 187500.00, 0.000, 0.000, 0.000, 22:13:02.916, 1541905982916
105, 30156.93, 20444.87, 187500.00, 187500.00, 187500.00, 187500.00, 187500.00, 187500.00, 0.000, 0.000, 0.000, 22:13:02.916, 1541905982916
106, 29546.37, 20242.03, 187500.00, 187500.00, 187500.00, 187500.00, 187500.00, 187500.00, 0.000, 0.000, 0.000, 22:13:02.916, 1541905982916
107, 29081.47, 19940.64, 187500.00, 187500.00, 187500.00, 187500.00, 187500.00, 187500.00, 0.000, 0.000, 0.000, 22:13:02.916, 1541905982916
108, 29421.89, 20021.80, 187500.00, 187500.00, 187500.00, 187500.00, 187500.00, 187500.00, 0.044, 0.668, 0.670, 22:13:02.916, 1541905982916
109, 30117.66, 20386.38, 187500.00, 187500.00, 187500.00, 187500.00, 187500.00, 187500.00, 0.000, 0.000, 0.000, 22:13:02.916, 1541905982916
110, 29660.00, 20277.77, 187500.00, 187500.00, 187500.00, 187500.00, 187500.00, 187500.00, 0.000, 0.000, 0.000, 22:13:02.917, 1541905982917
111, 29102.57, 19957.96, 187500.00, 187500.00, 187500.00, 187500.00, 187500.00, 187500.00, 0.000, 0.000, 0.000, 22:13:02.917, 1541905982917
112, 29312.84, 19978.75, 187500.00, 187500.00, 187500.00, 187500.00, 187500.00, 187500.00, 0.000, 0.000, 0.000, 22:13:02.917, 1541905982917
113, 30056.23, 20330.90, 187500.00, 187500.00, 187500.00, 187500.00, 187500.00, 187500.00, 0.000, 0.000, 0.000, 22:13:02.917, 1541905982917
114, 29803.97, 20339.39, 187500.00, 187500.00, 187500.00, 187500.00, 187500.00, 187500.00, 0.000, 0.000, 0.000, 22:13:02.917, 1541905982917
115, 29137.11, 19986.39, 187500.00, 187500.00, 187500.00, 187500.00, 187500.00, 187500.00, 0.000, 0.000, 0.000, 22:13:02.917, 1541905982917
116, 29204.50, 19924.48, 187500.00, 187500.00, 187500.00, 187500.00, 187500.00, 187500.00, 0.000, 0.000, 0.000, 22:13:02.917, 1541905982917
117, 29947.83, 20251.55, 187500.00, 187500.00, 187500.00, 187500.00, 187500.00, 187500.00, 0.000, 0.000, 0.000, 22:13:02.917, 1541905982917
118, 29950.42, 20386.42, 187500.00, 187500.00, 187500.00, 187500.00, 187500.00, 187500.00, 0.040, 0.668, 0.672, 22:13:02.917, 1541905982917
119, 29210.44, 20016.99, 187500.00, 187500.00, 187500.00, 187500.00, 187500.00, 187500.00, 0.000, 0.000, 0.000, 22:13:02.918, 1541905982918
120, 29124.70, 19886.55, 187500.00, 187500.00, 187500.00, 187500.00, 187500.00, 187500.00, 0.000, 0.000, 0.000, 22:13:03.372, 1541905983372
121, 29800.02, 20169.56, 187500.00, 187500.00, 187500.00, 187500.00, 187500.00, 187500.00, 0.000, 0.000, 0.000, 22:13:03.372, 1541905983372
122, 30034.44, 20401.33, 187500.00, 187500.00, 187500.00, 187500.00, 187500.00, 187500.00, 0.000, 0.000, 0.000, 22:13:03.372, 1541905983372
123, 29300.05, 20071.06, 187500.00, 187500.00, 187500.00, 187500.00, 187500.00, 187500.00, 0.000, 0.000, 0.000, 22:13:03.372, 1541905983372
124, 29064.17, 19861.69, 187500.00, 187500.00, 187500.00, 187500.00, 187500.00, 187500.00, 0.000, 0.000, 0.000, 22:13:03.372, 1541905983372
125, 29632.58, 20074.99, 187500.00, 187500.00, 187500.00, 187500.00, 187500.00, 187500.00, 0.000, 0.000, 0.000, 22:13:03.373, 1541905983373
126, 30084.91, 20393.91, 187500.00, 187500.00, 187500.00, 187500.00, 187500.00, 187500.00, 0.000, 0.000, 0.000, 22:13:03.373, 1541905983373
127, 29412.28, 20142.97, 187500.00, 187500.00, 187500.00, 187500.00, 187500.00, 187500.00, 0.000, 0.000, 0.000, 22:13:03.373, 1541905983373
128, 29048.13, 19879.22, 187500.00, 187500.00, 187500.00, 187500.00, 187500.00, 187500.00, 0.000, 0.000, 0.000, 22:13:03.373, 1541905983373
129, 29481.35, 20012.43, 187500.00, 187500.00, 187500.00, 187500.00, 187500.00, 187500.00, 0.036, 0.674, 0.672, 22:13:03.373, 1541905983373
130, 30087.75, 20358.71, 187500.00, 187500.00, 187500.00, 187500.00, 187500.00, 187500.00, 0.000, 0.000, 0.000, 22:13:03.374, 1541905983374
131, 29508.53, 20164.51, 187500.00, 187500.00, 187500.00, 187500.00, 187500.00, 187500.00, 0.000, 0.000, 0.000, 22:13:03.374, 1541905983374
132, 29022.71, 19860.66, 187500.00, 187500.00, 187500.00, 187500.00, 187500.00, 187500.00, 0.000, 0.000, 0.000, 22:13:03.374, 1541905983374
133, 29332.89, 19928.72, 187500.00, 187500.00, 187500.00, 187500.00, 187500.00, 187500.00, 0.000, 0.000, 0.000, 22:13:03.376, 1541905983376
134, 30051.67, 20302.33, 187500.00, 187500.00, 187500.00, 187500.00, 187500.00, 187500.00, 0.000, 0.000, 0.000, 22:13:03.376, 1541905983376
135, 29655.42, 20238.36, 187500.00, 187500.00, 187500.00, 187500.00, 187500.00, 187500.00, 0.000, 0.000, 0.000, 22:13:03.376, 1541905983376
136, 29075.71, 19913.86, 187500.00, 187500.00, 187500.00, 187500.00, 187500.00, 187500.00, 0.000, 0.000, 0.000, 22:13:03.376, 1541905983376
137, 29236.84, 19902.26, 187500.00, 187500.00, 187500.00, 187500.00, 187500.00, 187500.00, 0.000, 0.000, 0.000, 22:13:03.377, 1541905983377
138, 29973.64, 20250.54, 187500.00, 187500.00, 187500.00, 187500.00, 187500.00, 187500.00, 0.000, 0.000, 0.000, 22:13:03.377, 1541905983377
139, 29776.03, 20285.62, 187500.00, 187500.00, 187500.00, 187500.00, 187500.00, 187500.00, 0.036, 0.680, 0.676, 22:13:03.378, 1541905983378
140, 29086.79, 19928.12, 187500.00, 187500.00, 187500.00, 187500.00, 187500.00, 187500.00, 0.000, 0.000, 0.000, 22:13:03.378, 1541905983378
141, 29117.66, 19852.73, 187500.00, 187500.00, 187500.00, 187500.00, 187500.00, 187500.00, 0.000, 0.000, 0.000, 22:13:03.378, 1541905983378
142, 29834.73, 20167.82, 187500.00, 187500.00, 187500.00, 187500.00, 187500.00, 187500.00, 0.000, 0.000, 0.000, 22:13:03.378, 1541905983378
143, 29899.64, 20339.77, 187500.00, 187500.00, 187500.00, 187500.00, 187500.00, 187500.00, 0.000, 0.000, 0.000, 22:13:03.378, 1541905983378
144, 29178.79, 19995.00, 187500.00, 187500.00, 187500.00, 187500.00, 187500.00, 187500.00, 0.000, 0.000, 0.000, 22:13:03.378, 1541905983378
145, 29063.93, 19843.39, 187500.00, 187500.00, 187500.00, 187500.00, 187500.00, 187500.00, 0.000, 0.000, 0.000, 22:13:03.378, 1541905983378
146, 29696.86, 20088.79, 187500.00, 187500.00, 187500.00, 187500.00, 187500.00, 187500.00, 0.000, 0.000, 0.000, 22:13:03.378, 1541905983378
147, 29995.84, 20348.80, 187500.00, 187500.00, 187500.00, 187500.00, 187500.00, 187500.00, 0.000, 0.000, 0.000, 22:13:03.378, 1541905983378
148, 29270.77, 20036.08, 187500.00, 187500.00, 187500.00, 187500.00, 187500.00, 187500.00, 0.000, 0.000, 0.000, 22:13:03.384, 1541905983384
149, 29007.60, 19820.05, 187500.00, 187500.00, 187500.00, 187500.00, 187500.00, 187500.00, 0.038, 0.680, 0.672, 22:13:03.384, 1541905983384
150, 29557.19, 20027.61, 187500.00, 187500.00, 187500.00, 187500.00, 187500.00, 187500.00, 0.000, 0.000, 0.000, 22:13:03.384, 1541905983384
151, 30040.47, 20349.23, 187500.00, 187500.00, 187500.00, 187500.00, 187500.00, 187500.00, 0.000, 0.000, 0.000, 22:13:03.384, 1541905983384
152, 29380.25, 20102.46, 187500.00, 187500.00, 187500.00, 187500.00, 187500.00, 187500.00, 0.000, 0.000, 0.000, 22:13:03.384, 1541905983384
153, 28991.96, 19831.43, 187500.00, 187500.00, 187500.00, 187500.00, 187500.00, 187500.00, 0.000, 0.000, 0.000, 22:13:03.385, 1541905983385
154, 29408.10, 19957.94, 187500.00, 187500.00, 187500.00, 187500.00, 187500.00, 187500.00, 0.000, 0.000, 0.000, 22:13:03.385, 1541905983385
155, 30050.76, 20318.96, 187500.00, 187500.00, 187500.00, 187500.00, 187500.00, 187500.00, 0.000, 0.000, 0.000, 22:13:03.385, 1541905983385
156, 29520.35, 20167.93, 187500.00, 187500.00, 187500.00, 187500.00, 187500.00, 187500.00, 0.000, 0.000, 0.000, 22:13:03.385, 1541905983385
157, 29008.34, 19855.23, 187500.00, 187500.00, 187500.00, 187500.00, 187500.00, 187500.00, 0.000, 0.000, 0.000, 22:13:03.385, 1541905983385
158, 29266.08, 19876.36, 187500.00, 187500.00, 187500.00, 187500.00, 187500.00, 187500.00, 0.000, 0.000, 0.000, 22:13:03.385, 1541905983385
159, 29987.97, 20244.60, 187500.00, 187500.00, 187500.00, 187500.00, 187500.00, 187500.00, 0.040, 0.680, 0.670, 22:13:03.385, 1541905983385
160, 29639.73, 20202.27, 187500.00, 187500.00, 187500.00, 187500.00, 187500.00, 187500.00, 0.000, 0.000, 0.000, 22:13:03.385, 1541905983385
161, 29022.91, 19862.41, 187500.00, 187500.00, 187500.00, 187500.00, 187500.00, 187500.00, 0.000, 0.000, 0.000, 22:13:03.385, 1541905983385
162, 29146.32, 19840.26, 187500.00, 187500.00, 187500.00, 187500.00, 187500.00, 187500.00, 0.000, 0.000, 0.000, 22:13:03.386, 1541905983386
163, 29887.92, 20178.55, 187500.00, 187500.00, 187500.00, 187500.00, 187500.00, 187500.00, 0.000, 0.000, 0.000, 22:13:03.386, 1541905983386
164, 29773.21, 20253.34, 187500.00, 187500.00, 187500.00, 187500.00, 187500.00, 187500.00, 0.000, 0.000, 0.000, 22:13:03.386, 1541905983386
165, 29070.86, 19877.45, 187500.00, 187500.00, 187500.00, 187500.00, 187500.00, 187500.00, 0.000, 0.000, 0.000, 22:13:03.386, 1541905983386
166, 29040.23, 19764.39, 187500.00, 187500.00, 187500.00, 187500.00, 187500.00, 187500.00, 0.000, 0.000, 0.000, 22:13:03.386, 1541905983386
167, 29742.13, 20074.08, 187500.00, 187500.00, 187500.00, 187500.00, 187500.00, 187500.00, 0.000, 0.000, 0.000, 22:13:03.386, 1541905983386
168, 29864.16, 20259.91, 187500.00, 187500.00, 187500.00, 187500.00, 187500.00, 187500.00, 0.000, 0.000, 0.000, 22:13:03.386, 1541905983386
169, 29139.83, 19921.35, 187500.00, 187500.00, 187500.00, 187500.00, 187500.00, 187500.00, 0.048, 0.674, 0.672, 22:13:03.386, 1541905983386
170, 28974.19, 19744.48, 187500.00, 187500.00, 187500.00, 187500.00, 187500.00, 187500.00, 0.000, 0.000, 0.000, 22:13:03.386, 1541905983386
171, 29592.52, 19989.48, 187500.00, 187500.00, 187500.00, 187500.00, 187500.00, 187500.00, 0.000, 0.000, 0.000, 22:13:03.387, 1541905983387
172, 29949.64, 20282.78, 187500.00, 187500.00, 187500.00, 187500.00, 187500.00, 187500.00, 0.000, 0.000, 0.000, 22:13:03.387, 1541905983387
173, 29245.11, 19986.44, 187500.00, 187500.00, 187500.00, 187500.00, 187500.00, 187500.00, 0.000, 0.000, 0.000, 22:13:03.387, 1541905983387
174, 28944.39, 19748.23, 187500.00, 187500.00, 187500.00, 187500.00, 187500.00, 187500.00, 0.000, 0.000, 0.000, 22:13:03.387, 1541905983387
175, 29426.88, 19905.81, 187500.00, 187500.00, 187500.00, 187500.00, 187500.00, 187500.00, 0.000, 0.000, 0.000, 22:13:03.388, 1541905983388
176, 29970.98, 20255.11, 187500.00, 187500.00, 187500.00, 187500.00, 187500.00, 187500.00, 0.000, 0.000, 0.000, 22:13:03.388, 1541905983388
177, 29342.47, 20041.89, 187500.00, 187500.00, 187500.00, 187500.00, 187500.00, 187500.00, 0.000, 0.000, 0.000, 22:13:03.388, 1541905983388
178, 28920.63, 19762.05, 187500.00, 187500.00, 187500.00, 187500.00, 187500.00, 187500.00, 0.000, 0.000, 0.000, 22:13:03.388, 1541905983388
179, 29291.78, 19855.90, 187500.00, 187500.00, 187500.00, 187500.00, 187500.00, 187500.00, 0.050, 0.678, 0.674, 22:13:03.388, 1541905983388
180, 29955.34, 20219.95, 187500.00, 187500.00, 187500.00, 187500.00, 187500.00, 187500.00, 0.000, 0.000, 0.000, 22:13:03.388, 1541905983388
181, 29472.03, 20096.61, 187500.00, 187500.00, 187500.00, 187500.00, 187500.00, 187500.00, 0.000, 0.000, 0.000, 22:13:03.388, 1541905983388
182, 28951.79, 19787.39, 187500.00, 187500.00, 187500.00, 187500.00, 187500.00, 187500.00, 0.000, 0.000, 0.000, 22:13:03.388, 1541905983388
183, 29181.19, 19804.07, 187500.00, 187500.00, 187500.00, 187500.00, 187500.00, 187500.00, 0.000, 0.000, 0.000, 22:13:03.388, 1541905983388
184, 29921.25, 20166.77, 187500.00, 187500.00, 187500.00, 187500.00, 187500.00, 187500.00, 0.000, 0.000, 0.000, 22:13:03.389, 1541905983389
185, 29644.98, 20162.57, 187500.00, 187500.00, 187500.00, 187500.00, 187500.00, 187500.00, 0.000, 0.000, 0.000, 22:13:03.389, 1541905983389
186, 28999.96, 19813.99, 187500.00, 187500.00, 187500.00, 187500.00, 187500.00, 187500.00, 0.000, 0.000, 0.000, 22:13:03.389, 1541905983389
187, 29066.83, 19755.86, 187500.00, 187500.00, 187500.00, 187500.00, 187500.00, 187500.00, 0.000, 0.000, 0.000, 22:13:03.389, 1541905983389
188, 29797.24, 20093.19, 187500.00, 187500.00, 187500.00, 187500.00, 187500.00, 187500.00, 0.000, 0.000, 0.000, 22:13:03.389, 1541905983389
189, 29742.01, 20212.41, 187500.00, 187500.00, 187500.00, 187500.00, 187500.00, 187500.00, 0.046, 0.684, 0.676, 22:13:03.389, 1541905983389
190, 29020.90, 19849.24, 187500.00, 187500.00, 187500.00, 187500.00, 187500.00, 187500.00, 0.000, 0.000, 0.000, 22:13:03.389, 1541905983389
191, 28966.92, 19723.80, 187500.00, 187500.00, 187500.00, 187500.00, 187500.00, 187500.00, 0.000, 0.000, 0.000, 22:13:03.389, 1541905983389
192, 29650.44, 20000.34, 187500.00, 187500.00, 187500.00, 187500.00, 187500.00, 187500.00, 0.000, 0.000, 0.000, 22:13:03.389, 1541905983389
193, 29843.80, 20223.92, 187500.00, 187500.00, 187500.00, 187500.00, 187500.00, 187500.00, 0.000, 0.000, 0.000, 22:13:03.389, 1541905983389
194, 29116.19, 19892.27, 187500.00, 187500.00, 187500.00, 187500.00, 187500.00, 187500.00, 0.000, 0.000, 0.000, 22:13:03.389, 1541905983389
195, 28914.30, 19702.46, 187500.00, 187500.00, 187500.00, 187500.00, 187500.00, 187500.00, 0.000, 0.000, 0.000, 22:13:03.389, 1541905983389
196, 29485.37, 19904.54, 187500.00, 187500.00, 187500.00, 187500.00, 187500.00, 187500.00, 0.000, 0.000, 0.000, 22:13:03.390, 1541905983390
197, 29892.95, 20206.94, 187500.00, 187500.00, 187500.00, 187500.00, 187500.00, 187500.00, 0.000, 0.000, 0.000, 22:13:03.390, 1541905983390
198, 29201.57, 19944.01, 187500.00, 187500.00, 187500.00, 187500.00, 187500.00, 187500.00, 0.000, 0.000, 0.000, 22:13:03.390, 1541905983390
199, 28885.47, 19713.03, 187500.00, 187500.00, 187500.00, 187500.00, 187500.00, 187500.00, 0.000, 0.000, 0.000, 22:13:03.390, 1541905983390
200, 29364.47, 19862.97, 187500.00, 187500.00, 187500.00, 187500.00, 187500.00, 187500.00, 0.042, 0.678, 0.668, 22:13:03.390, 1541905983390
201, 29933.34, 20211.97, 187500.00, 187500.00, 187500.00, 187500.00, 187500.00, 187500.00, 0.000, 0.000, 0.000, 22:13:03.390, 1541905983390
202, 29320.41, 20004.56, 187500.00, 187500.00, 187500.00, 187500.00, 187500.00, 187500.00, 0.000, 0.000, 0.000, 22:13:03.390, 1541905983390
203, 28880.20, 19719.58, 187500.00, 187500.00, 187500.00, 187500.00, 187500.00, 187500.00, 0.000, 0.000, 0.000, 22:13:03.390, 1541905983390
204, 29207.58, 19792.51, 187500.00, 187500.00, 187500.00, 187500.00, 187500.00, 187500.00, 0.000, 0.000, 0.000, 22:13:03.390, 1541905983390
205, 29907.73, 20174.04, 187500.00, 187500.00, 187500.00, 187500.00, 187500.00, 187500.00, 0.000, 0.000, 0.000, 22:13:03.390, 1541905983390
206, 29468.29, 20086.24, 187500.00, 187500.00, 187500.00, 187500.00, 187500.00, 187500.00, 0.000, 0.000, 0.000, 22:13:03.390, 1541905983390
207, 28900.96, 19758.34, 187500.00, 187500.00, 187500.00, 187500.00, 187500.00, 187500.00, 0.000, 0.000, 0.000, 22:13:03.390, 1541905983390
208, 29076.94, 19747.90, 187500.00, 187500.00, 187500.00, 187500.00, 187500.00, 187500.00, 0.000, 0.000, 0.000, 22:13:03.390, 1541905983390
209, 29830.46, 20110.78, 187500.00, 187500.00, 187500.00, 187500.00, 187500.00, 187500.00, 0.000, 0.000, 0.000, 22:13:03.391, 1541905983391
210, 29588.72, 20117.51, 187500.00, 187500.00, 187500.00, 187500.00, 187500.00, 187500.00, 0.038, 0.680, 0.666, 22:13:03.391, 1541905983391
211, 28926.06, 19757.67, 187500.00, 187500.00, 187500.00, 187500.00, 187500.00, 187500.00, 0.000, 0.000, 0.000, 22:13:03.391, 1541905983391
212, 28987.93, 19697.07, 187500.00, 187500.00, 187500.00, 187500.00, 187500.00, 187500.00, 0.000, 0.000, 0.000, 22:13:03.391, 1541905983391
213, 29712.69, 20017.19, 187500.00, 187500.00, 187500.00, 187500.00, 187500.00, 187500.00, 0.000, 0.000, 0.000, 22:13:03.391, 1541905983391
214, 29722.03, 20163.37, 187500.00, 187500.00, 187500.00, 187500.00, 187500.00, 187500.00, 0.000, 0.000, 0.000, 22:13:03.391, 1541905983391
215, 29008.74, 19816.36, 187500.00, 187500.00, 187500.00, 187500.00, 187500.00, 187500.00, 0.000, 0.000, 0.000, 22:13:03.391, 1541905983391
216, 28905.03, 19670.94, 187500.00, 187500.00, 187500.00, 187500.00, 187500.00, 187500.00, 0.000, 0.000, 0.000, 22:13:03.391, 1541905983391
217, 29556.27, 19922.00, 187500.00, 187500.00, 187500.00, 187500.00, 187500.00, 187500.00, 0.000, 0.000, 0.000, 22:13:03.391, 1541905983391
218, 29805.31, 20161.38, 187500.00, 187500.00, 187500.00, 187500.00, 187500.00, 187500.00, 0.000, 0.000, 0.000, 22:13:03.391, 1541905983391
219, 29083.40, 19843.72, 187500.00, 187500.00, 187500.00, 187500.00, 187500.00, 187500.00, 0.000, 0.000, 0.000, 22:13:03.391, 1541905983391
220, 28846.42, 19638.55, 187500.00, 187500.00, 187500.00, 187500.00, 187500.00, 187500.00, 0.038, 0.678, 0.676, 22:13:03.391, 1541905983391
221, 29402.69, 19841.71, 187500.00, 187500.00, 187500.00, 187500.00, 187500.00, 187500.00, 0.000, 0.000, 0.000, 22:13:03.392, 1541905983392
222, 29841.99, 20147.15, 187500.00, 187500.00, 187500.00, 187500.00, 187500.00, 187500.00, 0.000, 0.000, 0.000, 22:13:03.392, 1541905983392
223, 29175.31, 19897.39, 187500.00, 187500.00, 187500.00, 187500.00, 187500.00, 187500.00, 0.000, 0.000, 0.000, 22:13:03.392, 1541905983392
224, 28819.31, 19641.93, 187500.00, 187500.00, 187500.00, 187500.00, 187500.00, 187500.00, 0.000, 0.000, 0.000, 22:13:03.392, 1541905983392
225, 29248.53, 19767.17, 187500.00, 187500.00, 187500.00, 187500.00, 187500.00, 187500.00, 0.000, 0.000, 0.000, 22:13:03.392, 1541905983392
226, 29854.24, 20119.14, 187500.00, 187500.00, 187500.00, 187500.00, 187500.00, 187500.00, 0.000, 0.000, 0.000, 22:13:03.392, 1541905983392
227, 29292.16, 19933.93, 187500.00, 187500.00, 187500.00, 187500.00, 187500.00, 187500.00, 0.000, 0.000, 0.000, 22:13:03.395, 1541905983395
228, 28796.42, 19611.42, 187500.00, 187500.00, 187500.00, 187500.00, 187500.00, 187500.00, 0.000, 0.000, 0.000, 22:13:03.395, 1541905983395
229, 29087.17, 19673.69, 187500.00, 187500.00, 187500.00, 187500.00, 187500.00, 187500.00, 0.000, 0.000, 0.000, 22:13:03.395, 1541905983395
230, 29808.75, 20060.94, 187500.00, 187500.00, 187500.00, 187500.00, 187500.00, 187500.00, 0.036, 0.670, 0.670, 22:13:03.396, 1541905983396
231, 29432.35, 20019.25, 187500.00, 187500.00, 187500.00, 187500.00, 187500.00, 187500.00, 0.000, 0.000, 0.000, 22:13:03.396, 1541905983396
232, 28829.95, 19667.66, 187500.00, 187500.00, 187500.00, 187500.00, 187500.00, 187500.00, 0.000, 0.000, 0.000, 22:13:03.396, 1541905983396
233, 28979.91, 19642.85, 187500.00, 187500.00, 187500.00, 187500.00, 187500.00, 187500.00, 0.000, 0.000, 0.000, 22:13:03.396, 1541905983396
234, 29714.72, 19988.79, 187500.00, 187500.00, 187500.00, 187500.00, 187500.00, 187500.00, 0.000, 0.000, 0.000, 22:13:03.396, 1541905983396
235, 29557.19, 20061.81, 187500.00, 187500.00, 187500.00, 187500.00, 187500.00, 187500.00, 0.000, 0.000, 0.000, 22:13:03.396, 1541905983396
236, 28886.54, 19714.80, 187500.00, 187500.00, 187500.00, 187500.00, 187500.00, 187500.00, 0.000, 0.000, 0.000, 22:13:03.396, 1541905983396
237, 28898.12, 19608.80, 187500.00, 187500.00, 187500.00, 187500.00, 187500.00, 187500.00, 0.000, 0.000, 0.000, 22:13:03.396, 1541905983396
238, 29607.75, 19910.91, 187500.00, 187500.00, 187500.00, 187500.00, 187500.00, 187500.00, 0.000, 0.000, 0.000, 22:13:03.396, 1541905983396
239, 29667.09, 20072.40, 187500.00, 187500.00, 187500.00, 187500.00, 187500.00, 187500.00, 0.000, 0.000, 0.000, 22:13:03.396, 1541905983396
240, 28943.52, 19723.94, 187500.00, 187500.00, 187500.00, 187500.00, 187500.00, 187500.00, 0.040, 0.668, 0.672, 22:13:03.397, 1541905983397
241, 28812.69, 19570.52, 187500.00, 187500.00, 187500.00, 187500.00, 187500.00, 187500.00, 0.000, 0.000, 0.000, 22:13:03.865, 1541905983865
242, 29438.79, 19817.95, 187500.00, 187500.00, 187500.00, 187500.00, 187500.00, 187500.00, 0.000, 0.000, 0.000, 22:13:03.866, 1541905983866
243, 29743.69, 20086.44, 187500.00, 187500.00, 187500.00, 187500.00, 187500.00, 187500.00, 0.000, 0.000, 0.000, 22:13:03.868, 1541905983868
244, 29030.36, 19780.78, 187500.00, 187500.00, 187500.00, 187500.00, 187500.00, 187500.00, 0.000, 0.000, 0.000, 22:13:03.869, 1541905983869
245, 28781.65, 19574.94, 187500.00, 187500.00, 187500.00, 187500.00, 187500.00, 187500.00, 0.000, 0.000, 0.000, 22:13:03.869, 1541905983869
246, 29301.71, 19755.57, 187500.00, 187500.00, 187500.00, 187500.00, 187500.00, 187500.00, 0.000, 0.000, 0.000, 22:13:03.869, 1541905983869
247, 29793.49, 20086.26, 187500.00, 187500.00, 187500.00, 187500.00, 187500.00, 187500.00, 0.000, 0.000, 0.000, 22:13:03.869, 1541905983869
248, 29138.47, 19842.94, 187500.00, 187500.00, 187500.00, 187500.00, 187500.00, 187500.00, 0.000, 0.000, 0.000, 22:13:03.869, 1541905983869
249, 28749.82, 19571.63, 187500.00, 187500.00, 187500.00, 187500.00, 187500.00, 187500.00, 0.000, 0.000, 0.000, 22:13:03.869, 1541905983869
250, 29166.68, 19699.96, 187500.00, 187500.00, 187500.00, 187500.00, 187500.00, 187500.00, 0.040, 0.674, 0.672, 22:13:03.869, 1541905983869
251, 29794.81, 20055.88, 187500.00, 187500.00, 187500.00, 187500.00, 187500.00, 187500.00, 0.000, 0.000, 0.000, 22:13:03.869, 1541905983869
252, 29264.09, 19901.46, 187500.00, 187500.00, 187500.00, 187500.00, 187500.00, 187500.00, 0.000, 0.000, 0.000, 22:13:03.869, 1541905983869
253, 28742.85, 19575.63, 187500.00, 187500.00, 187500.00, 187500.00, 187500.00, 187500.00, 0.000, 0.000, 0.000, 22:13:03.870, 1541905983870
254, 29013.79, 19620.70, 187500.00, 187500.00, 187500.00, 187500.00, 187500.00, 187500.00, 0.000, 0.000, 0.000, 22:13:03.870, 1541905983870
255, 29751.31, 20006.58, 187500.00, 187500.00, 187500.00, 187500.00, 187500.00, 187500.00, 0.000, 0.000, 0.000, 22:13:03.870, 1541905983870
0, 29417.53, 19986.06, 187500.00, 187500.00, 187500.00, 187500.00, 187500.00, 187500.00, 0.000, 0.000, 0.000, 22:13:03.871, 1541905983871
1, 28784.22, 19631.13, 187500.00, 187500.00, 187500.00, 187500.00, 187500.00, 187500.00, 0.000, 0.000, 0.000, 22:13:03.872, 1541905983872
2, 28910.88, 19608.51, 187500.00, 187500.00, 187500.00, 187500.00, 187500.00, 187500.00, 0.000, 0.000, 0.000, 22:13:03.872, 1541905983872
3, 29643.87, 19958.59, 187500.00, 187500.00, 187500.00, 187500.00, 187500.00, 187500.00, 0.000, 0.000, 0.000, 22:13:03.873, 1541905983873
4, 29535.39, 20046.21, 187500.00, 187500.00, 187500.00, 187500.00, 187500.00, 187500.00, 0.036, 0.678, 0.674, 22:13:03.873, 1541905983873
5, 28858.87, 19691.28, 187500.00, 187500.00, 187500.00, 187500.00, 187500.00, 187500.00, 0.000, 0.000, 0.000, 22:13:03.873, 1541905983873
6, 28845.10, 19592.55, 187500.00, 187500.00, 187500.00, 187500.00, 187500.00, 187500.00, 0.000, 0.000, 0.000, 22:13:03.873, 1541905983873
7, 29534.81, 19898.48, 187500.00, 187500.00, 187500.00, 187500.00, 187500.00, 187500.00, 0.000, 0.000, 0.000, 22:13:03.873, 1541905983873
8, 29651.40, 20097.08, 187500.00, 187500.00, 187500.00, 187500.00, 187500.00, 187500.00, 0.000, 0.000, 0.000, 22:13:03.873, 1541905983873
9, 28934.80, 19755.95, 187500.00, 187500.00, 187500.00, 187500.00, 187500.00, 187500.00, 0.000, 0.000, 0.000, 22:13:03.873, 1541905983873
10, 28772.71, 19578.52, 187500.00, 187500.00, 187500.00, 187500.00, 187500.00, 187500.00, 0.000, 0.000, 0.000, 22:13:03.874, 1541905983874
11, 29385.23, 19819.02, 187500.00, 187500.00, 187500.00, 187500.00, 187500.00, 187500.00, 0.000, 0.000, 0.000, 22:13:03.874, 1541905983874
12, 29709.07, 20077.52, 187500.00, 187500.00, 187500.00, 187500.00, 187500.00, 187500.00, 0.000, 0.000, 0.000, 22:13:03.874, 1541905983874
13, 28997.50, 19778.25, 187500.00, 187500.00, 187500.00, 187500.00, 187500.00, 187500.00, 0.000, 0.000, 0.000, 22:13:03.874, 1541905983874
14, 28700.85, 19544.68, 187500.00, 187500.00, 187500.00, 187500.00, 187500.00, 187500.00, 0.000, 0.000, 0.000, 22:13:03.874, 1541905983874
15, 29195.78, 19711.22, 187500.00, 187500.00, 187500.00, 187500.00, 187500.00, 187500.00, 0.038, 0.680, 0.678, 22:13:03.875, 1541905983875
16, 29748.05, 20065.12, 187500.00, 187500.00, 187500.00, 187500.00, 187500.00, 187500.00, 0.000, 0.000, 0.000, 22:13:03.875, 1541905983875
17, 29128.01, 19845.73, 187500.00, 187500.00, 187500.00, 187500.00, 187500.00, 187500.00, 0.000, 0.000, 0.000, 22:13:03.875, 1541905983875
18, 28700.64, 19557.24, 187500.00, 187500.00, 187500.00, 187500.00, 187500.00, 187500.00, 0.000, 0.000, 0.000, 22:13:03.875, 1541905983875
19, 29057.51, 19643.74, 187500.00, 187500.00, 187500.00, 187500.00, 187500.00, 187500.00, 0.000, 0.000, 0.000, 22:13:03.875, 1541905983875
20, 29727.71, 20021.82, 187500.00, 187500.00, 187500.00, 187500.00, 187500.00, 187500.00, 0.000, 0.000, 0.000, 22:13:03.875, 1541905983875
21, 29244.11, 19892.40, 187500.00, 187500.00, 187500.00, 187500.00, 187500.00, 187500.00, 0.000, 0.000, 0.000, 22:13:03.875, 1541905983875
22, 28705.81, 19563.27, 187500.00, 187500.00, 187500.00, 187500.00, 187500.00, 187500.00, 0.000, 0.000, 0.000, 22:13:03.876, 1541905983876
23, 28933.97, 19588.46, 187500.00, 187500.00, 187500.00, 187500.00, 187500.00, 187500.00, 0.000, 0.000, 0.000, 22:13:03.876, 1541905983876
24, 29650.48, 19942.83, 187500.00, 187500.00, 187500.00, 187500.00, 187500.00, 187500.00, 0.000, 0.000, 0.000, 22:13:03.876, 1541905983876
25, 29361.94, 19932.95, 187500.00, 187500.00, 187500.00, 187500.00, 187500.00, 187500.00, 0.040, 0.682, 0.674, 22:13:03.876, 1541905983876
26, 28729.63, 19592.33, 187500.00, 187500.00, 187500.00, 187500.00, 187500.00, 187500.00, 0.000, 0.000, 0.000, 22:13:03.876, 1541905983876
27, 28823.11, 19551.05, 187500.00, 187500.00, 187500.00, 187500.00, 187500.00, 187500.00, 0.000, 0.000, 0.000, 22:13:03.876, 1541905983876
28, 29550.99, 19882.61, 187500.00, 187500.00, 187500.00, 187500.00, 187500.00, 187500.00, 0.000, 0.000, 0.000, 22:13:03.876, 1541905983876
29, 29480.27, 19981.34, 187500.00, 187500.00, 187500.00, 187500.00, 187500.00, 187500.00, 0.000, 0.000, 0.000, 22:13:03.876, 1541905983876
30, 28785.83, 19631.45, 187500.00, 187500.00, 187500.00, 187500.00, 187500.00, 187500.00, 0.000, 0.000, 0.000, 22:13:03.876, 1541905983876
31, 28741.19, 19518.73, 187500.00, 187500.00, 187500.00, 187500.00, 187500.00, 187500.00, 0.000, 0.000, 0.000, 22:13:03.876, 1541905983876
32, 29414.11, 19806.57, 187500.00, 187500.00, 187500.00, 187500.00, 187500.00, 187500.00, 0.000, 0.000, 0.000, 22:13:03.876, 1541905983876
33, 29598.96, 20035.10, 187500.00, 187500.00, 187500.00, 187500.00, 187500.00, 187500.00, 0.000, 0.000, 0.000, 22:13:03.877, 1541905983877
34, 28871.17, 19686.34, 187500.00, 187500.00, 187500.00, 187500.00, 187500.00, 187500.00, 0.000, 0.000, 0.000, 22:13:03.877, 1541905983877
35, 28683.70, 19497.11, 187500.00, 187500.00, 187500.00, 187500.00, 187500.00, 187500.00, 0.038, 0.688, 0.672, 22:13:03.877, 1541905983877
36, 29270.53, 19729.06, 187500.00, 187500.00, 187500.00, 187500.00, 187500.00, 187500.00, 0.000, 0.000, 0.000, 22:13:03.877, 1541905983877
37, 29665.17, 20026.13, 187500.00, 187500.00, 187500.00, 187500.00, 187500.00, 187500.00, 0.000, 0.000, 0.000, 22:13:03.877, 1541905983877
38, 28990.97, 19756.35, 187500.00, 187500.00, 187500.00, 187500.00, 187500.00, 187500.00, 0.000, 0.000, 0.000, 22:13:03.877, 1541905983877
39, 28666.83, 19511.11, 187500.00, 187500.00, 187500.00, 187500.00, 187500.00, 187500.00, 0.000, 0.000, 0.000, 22:13:03.877, 1541905983877
40, 29135.61, 19668.26, 187500.00, 187500.00, 187500.00, 187500.00, 187500.00, 187500.00, 0.000, 0.000, 0.000, 22:13:03.877, 1541905983877
41, 29715.93, 20026.40, 187500.00, 187500.00, 187500.00, 187500.00, 187500.00, 187500.00, 0.000, 0.000, 0.000, 22:13:03.877, 1541905983877
42, 29115.58, 19829.97, 187500.00, 187500.00, 187500.00, 187500.00, 187500.00, 187500.00, 0.000, 0.000, 0.000, 22:13:03.877, 1541905983877
43, 28643.40, 19516.63, 187500.00, 187500.00, 187500.00, 187500.00, 187500.00, 187500.00, 0.000, 0.000, 0.000, 22:13:03.877, 1541905983877
44, 28980.04, 19589.63, 187500.00, 187500.00, 187500.00, 187500.00, 187500.00, 187500.00, 0.000, 0.000, 0.000, 22:13:03.878, 1541905983878
45, 29641.74, 19944.15, 187500.00, 187500.00, 187500.00, 187500.00, 187500.00, 187500.00, 0.038, 0.688, 0.670, 22:13:03.878, 1541905983878
46, 29201.10, 19847.10, 187500.00, 187500.00, 187500.00, 187500.00, 187500.00, 187500.00, 0.000, 0.000, 0.000, 22:13:03.878, 1541905983878
47, 28652.50, 19522.48, 187500.00, 187500.00, 187500.00, 187500.00, 187500.00, 187500.00, 0.000, 0.000, 0.000, 22:13:03.878, 1541905983878
48, 28833.28, 19521.48, 187500.00, 187500.00, 187500.00, 187500.00, 187500.00, 187500.00, 0.000, 0.000, 0.000, 22:13:03.878, 1541905983878
49, 29559.15, 19876.15, 187500.00, 187500.00, 187500.00, 187500.00, 187500.00, 187500.00, 0.000, 0.000, 0.000, 22:13:03.878, 1541905983878
50, 29327.54, 19897.32, 187500.00, 187500.00, 187500.00, 187500.00, 187500.00, 187500.00, 0.000, 0.000, 0.000, 22:13:03.878, 1541905983878
51, 28678.05, 19543.40, 187500.00, 187500.00, 187500.00, 187500.00, 187500.00, 187500.00, 0.000, 0.000, 0.000, 22:13:03.878, 1541905983878
52, 28729.95, 19474.63, 187500.00, 187500.00, 187500.00, 187500.00, 187500.00, 187500.00, 0.000, 0.000, 0.000, 22:13:03.878, 1541905983878
53, 29442.28, 19789.07, 187500.00, 187500.00, 187500.00, 187500.00, 187500.00, 187500.00, 0.000, 0.000, 0.000, 22:13:03.878, 1541905983878
54, 29441.96, 19922.09, 187500.00, 187500.00, 187500.00, 187500.00, 187500.00, 187500.00, 0.000, 0.000, 0.000, 22:13:03.878, 1541905983878
55, 28718.79, 19557.15, 187500.00, 187500.00, 187500.00, 187500.00, 187500.00, 187500.00, 0.040, 0.686, 0.676, 22:13:03.878, 1541905983878
56, 28635.02, 19423.91, 187500.00, 187500.00, 187500.00, 187500.00, 187500.00, 187500.00, 0.000, 0.000, 0.000, 22:13:03.879, 1541905983879
57, 29275.44, 19685.02, 187500.00, 187500.00, 187500.00, 187500.00, 187500.00, 187500.00, 0.000, 0.000, 0.000, 22:13:03.879, 1541905983879
58, 29506.78, 19925.13, 187500.00, 187500.00, 187500.00, 187500.00, 187500.00, 187500.00, 0.000, 0.000, 0.000, 22:13:03.879, 1541905983879
59, 28809.25, 19628.68, 187500.00, 187500.00, 187500.00, 187500.00, 187500.00, 187500.00, 0.000, 0.000, 0.000, 22:13:03.879, 1541905983879
60, 28579.90, 19417.70, 187500.00, 187500.00, 187500.00, 187500.00, 187500.00, 187500.00, 0.000, 0.000, 0.000, 22:13:03.879, 1541905983879
61, 29134.67, 19603.96, 187500.00, 187500.00, 187500.00, 187500.00, 187500.00, 187500.00, 0.000, 0.000, 0.000, 22:13:03.879, 1541905983879
62, 29580.79, 19925.62, 187500.00, 187500.00, 187500.00, 187500.00, 187500.00, 187500.00, 0.000, 0.000, 0.000, 22:13:03.879, 1541905983879
63, 28914.77, 19666.27, 187500.00, 187500.00, 187500.00, 187500.00, 187500.00, 187500.00, 0.000, 0.000, 0.000, 22:13:03.882, 1541905983882
64, 28575.83, 19424.69, 187500.00, 187500.00, 187500.00, 187500.00, 187500.00, 187500.00, 0.000, 0.000, 0.000, 22:13:03.884, 1541905983884
65, 29009.03, 19557.24, 187500.00, 187500.00, 187500.00, 187500.00, 187500.00, 187500.00, 0.042, 0.674, 0.670, 22:13:03.885, 1541905983885
66, 29611.77, 19918.40, 187500.00, 187500.00, 187500.00, 187500.00, 187500.00, 187500.00, 0.000, 0.000, 0.000, 22:13:03.885, 1541905983885
67, 29053.56, 19748.35, 187500.00, 187500.00, 187500.00, 187500.00, 187500.00, 187500.00, 0.000, 0.000, 0.000, 22:13:03.885, 1541905983885
68, 28574.80, 19440.56, 187500.00, 187500.00, 187500.00, 187500.00, 187500.00, 187500.00, 0.000, 0.000, 0.000, 22:13:03.885, 1541905983885
69, 28866.83, 19493.58, 187500.00, 187500.00, 187500.00, 187500.00, 187500.00, 187500.00, 0.000, 0.000, 0.000, 22:13:03.885, 1541905983885
70, 29559.62, 19863.46, 187500.00, 187500.00, 187500.00, 187500.00, 187500.00, 187500.00, 0.000, 0.000, 0.000, 22:13:03.885, 1541905983885
71, 29167.77, 19801.81, 187500.00, 187500.00, 187500.00, 187500.00, 187500.00, 187500.00, 0.000, 0.000, 0.000, 22:13:03.886, 1541905983886
72, 28590.23, 19466.27, 187500.00, 187500.00, 187500.00, 187500.00, 187500.00, 187500.00, 0.000, 0.000, 0.000, 22:13:03.886, 1541905983886
73, 28745.08, 19446.44, 187500.00, 187500.00, 187500.00, 187500.00, 187500.00, 187500.00, 0.000, 0.000, 0.000, 22:13:03.886, 1541905983886
74, 29477.88, 19796.25, 187500.00, 187500.00, 187500.00, 187500.00, 187500.00, 187500.00, 0.000, 0.000, 0.000, 22:13:03.886, 1541905983886
75, 29297.55, 19843.97, 187500.00, 187500.00, 187500.00, 187500.00, 187500.00, 187500.00, 0.038, 0.678, 0.672, 22:13:03.886, 1541905983886
76, 28639.45, 19495.84, 187500.00, 187500.00, 187500.00, 187500.00, 187500.00, 187500.00, 0.000, 0.000, 0.000, 22:13:03.886, 1541905983886
77, 28672.62, 19423.64, 187500.00, 187500.00, 187500.00, 187500.00, 187500.00, 187500.00, 0.000, 0.000, 0.000, 22:13:03.886, 1541905983886
78, 29369.95, 19727.63, 187500.00, 187500.00, 187500.00, 187500.00, 187500.00, 187500.00, 0.000, 0.000, 0.000, 22:13:03.886, 1541905983886
79, 29421.04, 19886.32, 187500.00, 187500.00, 187500.00, 187500.00, 187500.00, 187500.00, 0.000, 0.000, 0.000, 22:13:03.886, 1541905983886
80, 28721.83, 19549.60, 187500.00, 187500.00, 187500.00, 187500.00, 187500.00, 187500.00, 0.000, 0.000, 0.000, 22:13:03.886, 1541905983886
81, 28587.57, 19377.38, 187500.00, 187500.00, 187500.00, 187500.00, 187500.00, 187500.00, 0.000, 0.000, 0.000, 22:13:03.886, 1541905983886
82, 29220.32, 19626.69, 187500.00, 187500.00, 187500.00, 187500.00, 187500.00, 187500.00, 0.000, 0.000, 0.000, 22:13:03.886, 1541905983886
83, 29499.00, 19875.80, 187500.00, 187500.00, 187500.00, 187500.00, 187500.00, 187500.00, 0.000, 0.000, 0.000, 22:13:03.887, 1541905983887
84, 28788.62, 19567.14, 187500.00, 187500.00, 187500.00, 187500.00, 187500.00, 187500.00, 0.000, 0.000, 0.000, 22:13:03.887, 1541905983887
85, 28535.91, 19355.92, 187500.00, 187500.00, 187500.00, 187500.00, 187500.00, 187500.00, 0.000, 0.000, 0.000, 22:13:03.887, 1541905983887
86, 29068.13, 19552.43, 187500.00, 187500.00, 187500.00, 187500.00, 187500.00, 187500.00, 0.042, 0.680, 0.666, 22:13:03.887, 1541905983887
87, 29546.57, 19879.37, 187500.00, 187500.00, 187500.00, 187500.00, 187500.00, 187500.00, 0.000, 0.000, 0.000, 22:13:03.887, 1541905983887
88, 28898.61, 19634.49, 187500.00, 187500.00, 187500.00, 187500.00, 187500.00, 187500.00, 0.000, 0.000, 0.000, 22:13:03.887, 1541905983887
89, 28512.91, 19357.91, 187500.00, 187500.00, 187500.00, 187500.00, 187500.00, 187500.00, 0.000, 0.000, 0.000, 22:13:03.887, 1541905983887
90, 28917.52, 19472.10, 187500.00, 187500.00, 187500.00, 187500.00, 187500.00, 187500.00, 0.000, 0.000, 0.000, 22:13:03.887, 1541905983887
91, 29567.51, 19861.94, 187500.00, 187500.00, 187500.00, 187500.00, 187500.00, 187500.00, 0.000, 0.000, 0.000, 22:13:03.887, 1541905983887
92, 29052.86, 19726.44, 187500.00, 187500.00, 187500.00, 187500.00, 187500.00, 187500.00, 0.000, 0.000, 0.000, 22:13:03.887, 1541905983887
93, 28537.54, 19388.37, 187500.00, 187500.00, 187500.00, 187500.00, 187500.00, 187500.00, 0.000, 0.000, 0.000, 22:13:03.887, 1541905983887
94, 28794.37, 19425.34, 187500.00, 187500.00, 187500.00, 187500.00, 187500.00, 187500.00, 0.000, 0.000, 0.000, 22:13:03.887, 1541905983887
95, 29511.70, 19799.82, 187500.00, 187500.00, 187500.00, 187500.00, 187500.00, 187500.00, 0.000, 0.000, 0.000, 22:13:03.888, 1541905983888
96, 29179.20, 19770.83, 187500.00, 187500.00, 187500.00, 187500.00, 187500.00, 187500.00, 0.042, 0.688, 0.664, 22:13:03.888, 1541905983888
97, 28566.13, 19421.18, 187500.00, 187500.00, 187500.00, 187500.00, 187500.00, 187500.00, 0.000, 0.000, 0.000, 22:13:03.888, 1541905983888
98, 28688.28, 19395.21, 187500.00, 187500.00, 187500.00, 187500.00, 187500.00, 187500.00, 0.000, 0.000, 0.000, 22:13:03.888, 1541905983888
99, 29416.53, 19742.63, 187500.00, 187500.00, 187500.00, 187500.00, 187500.00, 187500.00, 0.000, 0.000, 0.000, 22:13:03.888, 1541905983888
100, 29305.42, 19833.78, 187500.00, 187500.00, 187500.00, 187500.00, 187500.00, 187500.00, 0.000, 0.000, 0.000, 22:13:03.888, 1541905983888
101, 28625.45, 19477.64, 187500.00, 187500.00, 187500.00, 187500.00, 187500.00, 187500.00, 0.000, 0.000, 0.000, 22:13:03.888, 1541905983888
102, 28607.35, 19370.29, 187500.00, 187500.00, 187500.00, 187500.00, 187500.00, 187500.00, 0.000, 0.000, 0.000, 22:13:03.888, 1541905983888
103, 29301.15, 19680.44, 187500.00, 187500.00, 187500.00, 187500.00, 187500.00, 187500.00, 0.000, 0.000, 0.000, 22:13:03.888, 1541905983888
104, 29418.74, 19874.12, 187500.00, 187500.00, 187500.00, 187500.00, 187500.00, 187500.00, 0.000, 0.000, 0.000, 22:13:03.888, 1541905983888
105, 28707.89, 19534.17, 187500.00, 187500.00, 187500.00, 187500.00, 187500.00, 187500.00, 0.000, 0.000, 0.000, 22:13:04.333, 1541905984333
106, 28544.54, 19351.89, 187500.00, 187500.00, 187500.00, 187500.00, 187500.00, 187500.00, 0.040, 0.688, 0.662, 22:13:04.333, 1541905984333
107, 29165.56, 19600.06, 187500.00, 187500.00, 187500.00, 187500.00, 187500.00, 187500.00, 0.000, 0.000, 0.000, 22:13:04.333, 1541905984333
108, 29492.10, 19870.92, 187500.00, 187500.00, 187500.00, 187500.00, 187500.00, 187500.00, 0.000, 0.000, 0.000, 22:13:04.334, 1541905984334
109, 28788.69, 19568.26, 187500.00, 187500.00, 187500.00, 187500.00, 187500.00, 187500.00, 0.000, 0.000, 0.000, 22:13:04.334, 1541905984334
110, 28503.35, 19334.88, 187500.00, 187500.00, 187500.00, 187500.00, 187500.00, 187500.00, 0.000, 0.000, 0.000, 22:13:04.334, 1541905984334
111, 28981.74, 19492.46, 187500.00, 187500.00, 187500.00, 187500.00, 187500.00, 187500.00, 0.000, 0.000, 0.000, 22:13:04.334, 1541905984334
112, 29514.36, 19853.51, 187500.00, 187500.00, 187500.00, 187500.00, 187500.00, 187500.00, 0.000, 0.000, 0.000, 22:13:04.334, 1541905984334
113, 28896.96, 19632.68, 187500.00, 187500.00, 187500.00, 187500.00, 187500.00, 187500.00, 0.000, 0.000, 0.000, 22:13:04.334, 1541905984334
114, 28475.85, 19327.31, 187500.00, 187500.00, 187500.00, 187500.00, 187500.00, 187500.00, 0.000, 0.000, 0.000, 22:13:04.334, 1541905984334
115, 28834.69, 19409.74, 187500.00, 187500.00, 187500.00, 187500.00, 187500.00, 187500.00, 0.000, 0.000, 0.000, 22:13:04.334, 1541905984334
116, 29499.72, 19786.57, 187500.00, 187500.00, 187500.00, 187500.00, 187500.00, 187500.00, 0.036, 0.686, 0.662, 22:13:04.334, 1541905984334
117, 29033.37, 19672.35, 187500.00, 187500.00, 187500.00, 187500.00, 187500.00, 187500.00, 0.000, 0.000, 0.000, 22:13:04.334, 1541905984334
118, 28490.14, 19335.62, 187500.00, 187500.00, 187500.00, 187500.00, 187500.00, 187500.00, 0.000, 0.000, 0.000, 22:13:04.334, 1541905984334
119, 28694.30, 19340.27, 187500.00, 187500.00, 187500.00, 187500.00, 187500.00, 187500.00, 0.000, 0.000, 0.000, 22:13:04.335, 1541905984335
120, 29433.78, 19735.67, 187500.00, 187500.00, 187500.00, 187500.00, 187500.00, 187500.00, 0.000, 0.000, 0.000, 22:13:04.335, 1541905984335
121, 29153.45, 19733.33, 187500.00, 187500.00, 187500.00, 187500.00, 187500.00, 187500.00, 0.000, 0.000, 0.000, 22:13:04.338, 1541905984338
122, 28507.06, 19360.77, 187500.00, 187500.00, 187500.00, 187500.00, 187500.00, 187500.00, 0.000, 0.000, 0.000, 22:13:04.339, 1541905984339
123, 28588.08, 19302.29, 187500.00, 187500.00, 187500.00, 187500.00, 187500.00, 187500.00, 0.000, 0.000, 0.000, 22:13:04.340, 1541905984340
124, 29323.88, 19653.69, 187500.00, 187500.00, 187500.00, 187500.00, 187500.00, 187500.00, 0.000, 0.000, 0.000, 22:13:04.341, 1541905984341
125, 29270.21, 19775.06, 187500.00, 187500.00, 187500.00, 187500.00, 187500.00, 187500.00, 0.000, 0.000, 0.000, 22:13:04.343, 1541905984343
126, 28561.01, 19397.04, 187500.00, 187500.00, 187500.00, 187500.00, 187500.00, 187500.00, 0.040, 0.688, 0.668, 22:13:04.343, 1541905984343
127, 28502.72, 19258.22, 187500.00, 187500.00, 187500.00, 187500.00, 187500.00, 187500.00, 0.000, 0.000, 0.000, 22:13:04.343, 1541905984343
128, 29180.07, 19555.92, 187500.00, 187500.00, 187500.00, 187500.00, 187500.00, 187500.00, 0.000, 0.000, 0.000, 22:13:04.344, 1541905984344
129, 29346.34, 19770.47, 187500.00, 187500.00, 187500.00, 187500.00, 187500.00, 187500.00, 0.000, 0.000, 0.000, 22:13:04.344, 1541905984344
130, 28645.10, 19440.94, 187500.00, 187500.00, 187500.00, 187500.00, 187500.00, 187500.00, 0.000, 0.000, 0.000, 22:13:04.344, 1541905984344
131, 28456.32, 19241.23, 187500.00, 187500.00, 187500.00, 187500.00, 187500.00, 187500.00, 0.000, 0.000, 0.000, 22:13:04.345, 1541905984345
132, 29041.87, 19463.32, 187500.00, 187500.00, 187500.00, 187500.00, 187500.00, 187500.00, 0.000, 0.000, 0.000, 22:13:04.345, 1541905984345
133, 29436.71, 19765.78, 187500.00, 187500.00, 187500.00, 187500.00, 187500.00, 187500.00, 0.000, 0.000, 0.000, 22:13:04.346, 1541905984346
134, 28747.05, 19472.28, 187500.00, 187500.00, 187500.00, 187500.00, 187500.00, 187500.00, 0.000, 0.000, 0.000, 22:13:04.346, 1541905984346
135, 28427.57, 19218.99, 187500.00, 187500.00, 187500.00, 187500.00, 187500.00, 187500.00, 0.000, 0.000, 0.000, 22:13:04.346, 1541905984346
136, 28907.02, 19381.29, 187500.00, 187500.00, 187500.00, 187500.00, 187500.00, 187500.00, 0.044, 0.688, 0.664, 22:13:04.346, 1541905984346
137, 29484.32, 19749.91, 187500.00, 187500.00, 187500.00, 187500.00, 187500.00, 187500.00, 0.000, 0.000, 0.000, 22:13:04.346, 1541905984346
138, 28887.35, 19545.42, 187500.00, 187500.00, 187500.00, 187500.00, 187500.00, 187500.00, 0.000, 0.000, 0.000, 22:13:04.346, 1541905984346
139, 28439.38, 19238.55, 187500.00, 187500.00, 187500.00, 187500.00, 187500.00, 187500.00, 0.000, 0.000, 0.000, 22:13:04.347, 1541905984347
140, 28781.29, 19324.87, 187500.00, 187500.00, 187500.00, 187500.00, 187500.00, 187500.00, 0.000, 0.000, 0.000, 22:13:04.347, 1541905984347
141, 29463.89, 19704.69, 187500.00, 187500.00, 187500.00, 187500.00, 187500.00, 187500.00, 0.000, 0.000, 0.000, 22:13:04.347, 1541905984347
142, 29022.00, 19611.73, 187500.00, 187500.00, 187500.00, 187500.00, 187500.00, 187500.00, 0.000, 0.000, 0.000, 22:13:04.347, 1541905984347
143, 28458.71, 19268.97, 187500.00, 187500.00, 187500.00, 187500.00, 187500.00, 187500.00, 0.000, 0.000, 0.000, 22:13:04.349, 1541905984349
144, 28645.86, 19264.97, 187500.00, 187500.00, 187500.00, 187500.00, 187500.00, 187500.00, 0.000, 0.000, 0.000, 22:13:04.350, 1541905984350
145, 29387.13, 19644.41, 187500.00, 187500.00, 187500.00, 187500.00, 187500.00, 187500.00, 0.000, 0.000, 0.000, 22:13:04.350, 1541905984350
146, 29153.20, 19663.83, 187500.00, 187500.00, 187500.00, 187500.00, 187500.00, 187500.00, 0.044, 0.682, 0.660, 22:13:04.350, 1541905984350
147, 28496.82, 19298.76, 187500.00, 187500.00, 187500.00, 187500.00, 187500.00, 187500.00, 0.000, 0.000, 0.000, 22:13:04.351, 1541905984351
148, 28545.55, 19226.59, 187500.00, 187500.00, 187500.00, 187500.00, 187500.00, 187500.00, 0.000, 0.000, 0.000, 22:13:04.351, 1541905984351
149, 29267.96, 19558.92, 187500.00, 187500.00, 187500.00, 187500.00, 187500.00, 187500.00, 0.000, 0.000, 0.000, 22:13:04.351, 1541905984351
150, 29260.36, 19695.17, 187500.00, 187500.00, 187500.00, 187500.00, 187500.00, 187500.00, 0.000, 0.000, 0.000, 22:13:04.352, 1541905984352
151, 28564.68, 19345.84, 187500.00, 187500.00, 187500.00, 187500.00, 187500.00, 187500.00, 0.000, 0.000, 0.000, 22:13:04.352, 1541905984352
152, 28472.23, 19203.21, 187500.00, 187500.00, 187500.00, 187500.00, 187500.00, 187500.00, 0.000, 0.000, 0.000, 22:13:04.353, 1541905984353
153, 29122.67, 19476.01, 187500.00, 187500.00, 187500.00, 187500.00, 187500.00, 187500.00, 0.000, 0.000, 0.000, 22:13:04.353, 1541905984353
154, 29360.15, 19726.29, 187500.00, 187500.00, 187500.00, 187500.00, 187500.00, 187500.00, 0.000, 0.000, 0.000, 22:13:04.354, 1541905984354
155, 28642.04, 19392.84, 187500.00, 187500.00, 187500.00, 187500.00, 187500.00, 187500.00, 0.000, 0.000, 0.000, 22:13:04.354, 1541905984354
156, 28413.16, 19179.14, 187500.00, 187500.00, 187500.00, 187500.00, 187500.00, 187500.00, 0.038, 0.688, 0.660, 22:13:04.354, 1541905984354
157, 28974.59, 19394.81, 187500.00, 187500.00, 187500.00, 187500.00, 187500.00, 187500.00, 0.000, 0.000, 0.000, 22:13:04.354, 1541905984354
158, 29406.40, 19708.85, 187500.00, 187500.00, 187500.00, 187500.00, 187500.00, 187500.00, 0.000, 0.000, 0.000, 22:13:04.354, 1541905984354
159, 28731.33, 19429.63, 187500.00, 187500.00, 187500.00, 187500.00, 187500.00, 187500.00, 0.000, 0.000, 0.000, 22:13:04.354, 1541905984354
160, 28371.52, 19162.57, 187500.00, 187500.00, 187500.00, 187500.00, 187500.00, 187500.00, 0.000, 0.000, 0.000, 22:13:04.354, 1541905984354
161, 28808.85, 19297.02, 187500.00, 187500.00, 187500.00, 187500.00, 187500.00, 187500.00, 0.000, 0.000, 0.000, 22:13:04.354, 1541905984354
162, 29421.78, 19678.63, 187500.00, 187500.00, 187500.00, 187500.00, 187500.00, 187500.00, 0.000, 0.000, 0.000, 22:13:04.354, 1541905984354
163, 28871.86, 19508.47, 187500.00, 187500.00, 187500.00, 187500.00, 187500.00, 187500.00, 0.000, 0.000, 0.000, 22:13:04.354, 1541905984354
164, 28388.41, 19179.54, 187500.00, 187500.00, 187500.00, 187500.00, 187500.00, 187500.00, 0.000, 0.000, 0.000, 22:13:04.354, 1541905984354
165, 28696.42, 19236.45, 187500.00, 187500.00, 187500.00, 187500.00, 187500.00, 187500.00, 0.000, 0.000, 0.000, 22:13:04.354, 1541905984354
166, 29395.45, 19630.22, 187500.00, 187500.00, 187500.00, 187500.00, 187500.00, 187500.00, 0.000, 0.000, 0.000, 22:13:04.355, 1541905984355
167, 28991.80, 19563.63, 187500.00, 187500.00, 187500.00, 187500.00, 187500.00, 187500.00, 0.046, 0.692, 0.660, 22:13:04.355, 1541905984355
168, 28406.65, 19213.45, 187500.00, 187500.00, 187500.00, 187500.00, 187500.00, 187500.00, 0.000, 0.000, 0.000, 22:13:04.355, 1541905984355
169, 28569.73, 19198.65, 187500.00, 187500.00, 187500.00, 187500.00, 187500.00, 187500.00, 0.000, 0.000, 0.000, 22:13:04.355, 1541905984355
170, 29309.15, 19564.66, 187500.00, 187500.00, 187500.00, 187500.00, 187500.00, 187500.00, 0.000, 0.000, 0.000, 22:13:04.355, 1541905984355
171, 29117.68, 19602.01, 187500.00, 187500.00, 187500.00, 187500.00, 187500.00, 187500.00, 0.000, 0.000, 0.000, 22:13:04.355, 1541905984355
172, 28457.55, 19254.17, 187500.00, 187500.00, 187500.00, 187500.00, 187500.00, 187500.00, 0.000, 0.000, 0.000, 22:13:04.355, 1541905984355
173, 28471.16, 19170.33, 187500.00, 187500.00, 187500.00, 187500.00, 187500.00, 187500.00, 0.000, 0.000, 0.000, 22:13:04.355, 1541905984355
174, 29177.54, 19485.49, 187500.00, 187500.00, 187500.00, 187500.00, 187500.00, 187500.00, 0.000, 0.000, 0.000, 22:13:04.355, 1541905984355
175, 29243.03, 19650.31, 187500.00, 187500.00, 187500.00, 187500.00, 187500.00, 187500.00, 0.000, 0.000, 0.000, 22:13:04.355, 1541905984355
176, 28534.91, 19295.50, 187500.00, 187500.00, 187500.00, 187500.00, 187500.00, 187500.00, 0.000, 0.000, 0.000, 22:13:04.355, 1541905984355
177, 28407.01, 19124.26, 187500.00, 187500.00, 187500.00, 187500.00, 187500.00, 187500.00, 0.044, 0.694, 0.658, 22:13:04.355, 1541905984355
178, 29045.22, 19392.98, 187500.00, 187500.00, 187500.00, 187500.00, 187500.00, 187500.00, 0.000, 0.000, 0.000, 22:13:04.356, 1541905984356
179, 29340.02, 19668.73, 187500.00, 187500.00, 187500.00, 187500.00, 187500.00, 187500.00, 0.000, 0.000, 0.000, 22:13:04.356, 1541905984356
180, 28638.60, 19355.13, 187500.00, 187500.00, 187500.00, 187500.00, 187500.00, 187500.00, 0.000, 0.000, 0.000, 22:13:04.356, 1541905984356
181, 28359.98, 19110.81, 187500.00, 187500.00, 187500.00, 187500.00, 187500.00, 187500.00, 0.000, 0.000, 0.000, 22:13:04.356, 1541905984356
182, 28893.99, 19310.07, 187500.00, 187500.00, 187500.00, 187500.00, 187500.00, 187500.00, 0.000, 0.000, 0.000, 22:13:04.356, 1541905984356
183, 29373.34, 19642.51, 187500.00, 187500.00, 187500.00, 187500.00, 187500.00, 187500.00, 0.000, 0.000, 0.000, 22:13:04.356, 1541905984356
184, 28718.50, 19390.76, 187500.00, 187500.00, 187500.00, 187500.00, 187500.00, 187500.00, 0.000, 0.000, 0.000, 22:13:04.356, 1541905984356
185, 28337.74, 19119.32, 187500.00, 187500.00, 187500.00, 187500.00, 187500.00, 187500.00, 0.000, 0.000, 0.000, 22:13:04.356, 1541905984356
186, 28725.28, 19223.97, 187500.00, 187500.00, 187500.00, 187500.00, 187500.00, 187500.00, 0.000, 0.000, 0.000, 22:13:04.356, 1541905984356
187, 29362.35, 19603.20, 187500.00, 187500.00, 187500.00, 187500.00, 187500.00, 187500.00, 0.042, 0.690, 0.658, 22:13:04.356, 1541905984356
188, 28849.48, 19453.08, 187500.00, 187500.00, 187500.00, 187500.00, 187500.00, 187500.00, 0.000, 0.000, 0.000, 22:13:04.356, 1541905984356
189, 28335.55, 19116.64, 187500.00, 187500.00, 187500.00, 187500.00, 187500.00, 187500.00, 0.000, 0.000, 0.000, 22:13:04.356, 1541905984356
190, 28590.70, 19146.30, 187500.00, 187500.00, 187500.00, 187500.00, 187500.00, 187500.00, 0.000, 0.000, 0.000, 22:13:04.357, 1541905984357
191, 29311.05, 19532.07, 187500.00, 187500.00, 187500.00, 187500.00, 187500.00, 187500.00, 0.000, 0.000, 0.000, 22:13:04.357, 1541905984357
192, 28966.52, 19488.78, 187500.00, 187500.00, 187500.00, 187500.00, 187500.00, 187500.00, 0.000, 0.000, 0.000, 22:13:04.357, 1541905984357
193, 28374.89, 19143.11, 187500.00, 187500.00, 187500.00, 187500.00, 187500.00, 187500.00, 0.000, 0.000, 0.000, 22:13:04.357, 1541905984357
194, 28501.07, 19107.46, 187500.00, 187500.00, 187500.00, 187500.00, 187500.00, 187500.00, 0.000, 0.000, 0.000, 22:13:04.357, 1541905984357
195, 29237.89, 19472.53, 187500.00, 187500.00, 187500.00, 187500.00, 187500.00, 187500.00, 0.000, 0.000, 0.000, 22:13:04.357, 1541905984357
196, 29114.11, 19555.50, 187500.00, 187500.00, 187500.00, 187500.00, 187500.00, 187500.00, 0.000, 0.000, 0.000, 22:13:04.357, 1541905984357
197, 28431.80, 19192.28, 187500.00, 187500.00, 187500.00, 187500.00, 187500.00, 187500.00, 0.044, 0.694, 0.658, 22:13:04.357, 1541905984357
198, 28405.18, 19073.97, 187500.00, 187500.00, 187500.00, 187500.00, 187500.00, 187500.00, 0.000, 0.000, 0.000, 22:13:04.357, 1541905984357
199, 29103.89, 19386.63, 187500.00, 187500.00, 187500.00, 187500.00, 187500.00, 187500.00, 0.000, 0.000, 0.000, 22:13:04.357, 1541905984357
200, 29225.02, 19581.58, 187500.00, 187500.00, 187500.00, 187500.00, 187500.00, 187500.00, 0.000, 0.000, 0.000, 22:13:04.357, 1541905984357
201, 28519.77, 19234.53, 187500.00, 187500.00, 187500.00, 187500.00, 187500.00, 187500.00, 0.000, 0.000, 0.000, 22:13:04.357, 1541905984357
202, 28351.51, 19049.70, 187500.00, 187500.00, 187500.00, 187500.00, 187500.00, 187500.00, 0.000, 0.000, 0.000, 22:13:04.358, 1541905984358
203, 28949.40, 19291.63, 187500.00, 187500.00, 187500.00, 187500.00, 187500.00, 187500.00, 0.000, 0.000, 0.000, 22:13:04.358, 1541905984358
204, 29302.15, 19591.84, 187500.00, 187500.00, 187500.00, 187500.00, 187500.00, 187500.00, 0.000, 0.000, 0.000, 22:13:04.358, 1541905984358
205, 28596.22, 19276.90, 187500.00, 187500.00, 187500.00, 187500.00, 187500.00, 187500.00, 0.000, 0.000, 0.000, 22:13:04.358, 1541905984358
206, 28302.07, 19031.48, 187500.00, 187500.00, 187500.00, 187500.00, 187500.00, 187500.00, 0.000, 0.000, 0.000, 22:13:04.358, 1541905984358
207, 28800.78, 19209.89, 187500.00, 187500.00, 187500.00, 187500.00, 187500.00, 187500.00, 0.036, 0.690, 0.660, 22:13:04.358, 1541905984358
208, 29324.50, 19563.99, 187500.00, 187500.00, 187500.00, 187500.00, 187500.00, 187500.00, 0.000, 0.000, 0.000, 22:13:04.358, 1541905984358
209, 28704.65, 19330.71, 187500.00, 187500.00, 187500.00, 187500.00, 187500.00, 187500.00, 0.000, 0.000, 0.000, 22:13:04.358, 1541905984358
210, 28286.69, 19038.23, 187500.00, 187500.00, 187500.00, 187500.00, 187500.00, 187500.00, 0.000, 0.000, 0.000, 22:13:04.358, 1541905984358
211, 28661.87, 19147.62, 187500.00, 187500.00, 187500.00, 187500.00, 187500.00, 187500.00, 0.000, 0.000, 0.000, 22:13:04.358, 1541905984358
212, 29329.31, 19529.21, 187500.00, 187500.00, 187500.00, 187500.00, 187500.00, 187500.00, 0.000, 0.000, 0.000, 22:13:04.358, 1541905984358
213, 28850.98, 19398.03, 187500.00, 187500.00, 187500.00, 187500.00, 187500.00, 187500.00, 0.000, 0.000, 0.000, 22:13:04.358, 1541905984358
214, 28308.57, 19059.04, 187500.00, 187500.00, 187500.00, 187500.00, 187500.00, 187500.00, 0.000, 0.000, 0.000, 22:13:04.359, 1541905984359
215, 28529.92, 19080.72, 187500.00, 187500.00, 187500.00, 187500.00, 187500.00, 187500.00, 0.000, 0.000, 0.000, 22:13:04.359, 1541905984359
216, 29234.54, 19445.12, 187500.00, 187500.00, 187500.00, 187500.00, 187500.00, 187500.00, 0.000, 0.000, 0.000, 22:13:04.359, 1541905984359
217, 28952.93, 19434.28, 187500.00, 187500.00, 187500.00, 187500.00, 187500.00, 187500.00, 0.040, 0.682, 0.656, 22:13:04.359, 1541905984359
218, 28322.88, 19068.47, 187500.00, 187500.00, 187500.00, 187500.00, 187500.00, 187500.00, 0.000, 0.000, 0.000, 22:13:04.359, 1541905984359
219, 28418.19, 19022.65, 187500.00, 187500.00, 187500.00, 187500.00, 187500.00, 187500.00, 0.000, 0.000, 0.000, 22:13:04.359, 1541905984359
220, 29136.53, 19365.44, 187500.00, 187500.00, 187500.00, 187500.00, 187500.00, 187500.00, 0.000, 0.000, 0.000, 22:13:04.359, 1541905984359
221, 29081.50, 19478.34, 187500.00, 187500.00, 187500.00, 187500.00, 187500.00, 187500.00, 0.000, 0.000, 0.000, 22:13:04.359, 1541905984359
222, 28377.64, 19099.03, 187500.00, 187500.00, 187500.00, 187500.00, 187500.00, 187500.00, 0.000, 0.000, 0.000, 22:13:04.359, 1541905984359
223, 28331.48, 18985.08, 187500.00, 187500.00, 187500.00, 187500.00, 187500.00, 187500.00, 0.000, 0.000, 0.000, 22:13:04.359, 1541905984359
224, 29018.80, 19295.10, 187500.00, 187500.00, 187500.00, 187500.00, 187500.00, 187500.00, 0.000, 0.000, 0.000, 22:13:04.359, 1541905984359
0, 0.00, 0.00, 0.00, 0.00, 0.00, 0.00, 0.00, 0.00, 0.080, 0.684, 0.674, 22:13:09.751, 1541905989751
1, 26460.33, 14536.50, 0.00, 0.00, 0.00, 0.00, 0.00, 0.00, 0.000, 0.000, 0.000, 22:13:09.767, 1541905989767
2, 26995.21, 14859.17, 0.00, 0.00, 0.00, 0.00, 0.00, 0.00, 0.000, 0.000, 0.000, 22:13:10.245, 1541905990245
3, 26838.37, 14896.86, 0.00, 0.00, 0.00, 0.00, 0.00, 0.00, 0.000, 0.000, 0.000, 22:13:10.246, 1541905990246
4, 26361.29, 14596.72, 0.00, 0.00, 0.00, 0.00, 0.00, 0.00, 0.000, 0.000, 0.000, 22:13:10.246, 1541905990246
5, 26394.01, 14533.93, 0.00, 0.00, 0.00, 0.00, 0.00, 0.00, 0.000, 0.000, 0.000, 22:13:10.246, 1541905990246
6, 26928.93, 14817.28, 0.00, 0.00, 0.00, 0.00, 0.00, 0.00, 0.000, 0.000, 0.000, 22:13:10.246, 1541905990246
7, 26948.11, 14955.06, 0.00, 0.00, 0.00, 0.00, 0.00, 0.00, 0.000, 0.000, 0.000, 22:13:10.246, 1541905990246
8, 26454.07, 14668.02, 0.00, 0.00, 0.00, 0.00, 0.00, 0.00, 0.096, 0.672, 0.672, 22:13:10.246, 1541905990246
9, 26373.65, 14535.88, 0.00, 0.00, 0.00, 0.00, 0.00, 0.00, 0.000, 0.000, 0.000, 22:13:10.246, 1541905990246
10, 26859.38, 14775.06, 0.00, 0.00, 0.00, 0.00, 0.00, 0.00, 0.000, 0.000, 0.000, 22:13:10.246, 1541905990246
11, 27038.19, 14993.53, 0.00, 0.00, 0.00, 0.00, 0.00, 0.00, 0.000, 0.000, 0.000, 22:13:10.246, 1541905990246
12, 26532.01, 14723.09, 0.00, 0.00, 0.00, 0.00, 0.00, 0.00, 0.000, 0.000, 0.000, 22:13:10.247, 1541905990247
13, 26346.98, 14535.56, 0.00, 0.00, 0.00, 0.00, 0.00, 0.00, 0.000, 0.000, 0.000, 22:13:10.247, 1541905990247
14, 26761.61, 14724.19, 0.00, 0.00, 0.00, 0.00, 0.00, 0.00, 0.000, 0.000, 0.000, 22:13:10.247, 1541905990247
15, 27090.13, 15009.96, 0.00, 0.00, 0.00, 0.00, 0.00, 0.00, 0.000, 0.000, 0.000, 22:13:10.247, 1541905990247
16, 26630.16, 14796.52, 0.00, 0.00, 0.00, 0.00, 0.00, 0.00, 0.000, 0.000, 0.000, 22:13:10.247, 1541905990247
17, 26365.56, 14564.02, 0.00, 0.00, 0.00, 0.00, 0.00, 0.00, 0.000, 0.000, 0.000, 22:13:10.247, 1541905990247
18, 26678.77, 14669.52, 0.00, 0.00, 0.00, 0.00, 0.00, 0.00, 0.108, 0.674, 0.672, 22:13:10.247, 1541905990247
19, 27101.15, 14980.99, 0.00, 0.00, 0.00, 0.00, 0.00, 0.00, 0.000, 0.000, 0.000, 22:13:10.247, 1541905990247
20, 26713.33, 14844.26, 0.00, 0.00, 0.00, 0.00, 0.00, 0.00, 0.000, 0.000, 0.000, 22:13:10.247, 1541905990247
21, 26354.58, 14574.70, 0.00, 0.00, 0.00, 0.00, 0.00, 0.00, 0.000, 0.000, 0.000, 22:13:10.247, 1541905990247
22, 26551.46, 14607.29, 0.00, 0.00, 0.00, 0.00, 0.00, 0.00, 0.000, 0.000, 0.000, 22:13:10.247, 1541905990247
23, 27068.32, 14942.01, 0.00, 0.00, 0.00, 0.00, 0.00, 0.00, 0.000, 0.000, 0.000, 22:13:10.248, 1541905990248
24, 26806.58, 14897.06, 0.00, 0.00, 0.00, 0.00, 0.00, 0.00, 0.000, 0.000, 0.000, 22:13:10.248, 1541905990248
25, 26361.13, 14587.89, 0.00, 0.00, 0.00, 0.00, 0.00, 0.00, 0.000, 0.000, 0.000, 22:13:10.249, 1541905990249
26, 26450.83, 14557.38, 0.00, 0.00, 0.00, 0.00, 0.00, 0.00, 0.000, 0.000, 0.000, 22:13:10.250, 1541905990250
27, 26978.85, 14867.35, 0.00, 0.00, 0.00, 0.00, 0.00, 0.00, 0.000, 0.000, 0.000, 22:13:10.250, 1541905990250
28, 26872.12, 14932.84, 0.00, 0.00, 0.00, 0.00, 0.00, 0.00, 0.104, 0.682, 0.666, 22:13:10.250, 1541905990250
29, 26393.79, 14636.70, 0.00, 0.00, 0.00, 0.00, 0.00, 0.00, 0.000, 0.000, 0.000, 22:13:10.250, 1541905990250
30, 26386.81, 14552.91, 0.00, 0.00, 0.00, 0.00, 0.00, 0.00, 0.000, 0.000, 0.000, 22:13:10.250, 1541905990250
31, 26902.51, 14828.46, 0.00, 0.00, 0.00, 0.00, 0.00, 0.00, 0.000, 0.000, 0.000, 22:13:10.250, 1541905990250
32, 26962.71, 14990.53, 0.00, 0.00, 0.00, 0.00, 0.00, 0.00, 0.000, 0.000, 0.000, 22:13:10.250, 1541905990250
33, 26463.66, 14708.65, 0.00, 0.00, 0.00, 0.00, 0.00, 0.00, 0.000, 0.000, 0.000, 22:13:10.250, 1541905990250
34, 26356.04, 14564.42, 0.00, 0.00, 0.00, 0.00, 0.00, 0.00, 0.000, 0.000, 0.000, 22:13:10.250, 1541905990250
35, 26811.59, 14782.97, 0.00, 0.00, 0.00, 0.00, 0.00, 0.00, 0.000, 0.000, 0.000, 22:13:10.251, 1541905990251
36, 27029.00, 15010.31, 0.00, 0.00, 0.00, 0.00, 0.00, 0.00, 0.000, 0.000, 0.000, 22:13:10.251, 1541905990251
37, 26526.83, 14746.03, 0.00, 0.00, 0.00, 0.00, 0.00, 0.00, 0.000, 0.000, 0.000, 22:13:10.251, 1541905990251
38, 26313.17, 14544.62, 0.00, 0.00, 0.00, 0.00, 0.00, 0.00, 0.098, 0.690, 0.660, 22:13:10.251, 1541905990251
39, 26696.23, 14705.01, 0.00, 0.00, 0.00, 0.00, 0.00, 0.00, 0.000, 0.000, 0.000, 22:13:10.251, 1541905990251
40, 27061.17, 15004.75, 0.00, 0.00, 0.00, 0.00, 0.00, 0.00, 0.000, 0.000, 0.000, 22:13:10.251, 1541905990251
41, 26630.43, 14822.96, 0.00, 0.00, 0.00, 0.00, 0.00, 0.00, 0.000, 0.000, 0.000, 22:13:10.251, 1541905990251
42, 26345.69, 14598.73, 0.00, 0.00, 0.00, 0.00, 0.00, 0.00, 0.000, 0.000, 0.000, 22:13:10.251, 1541905990251
43, 26650.21, 14703.83, 0.00, 0.00, 0.00, 0.00, 0.00, 0.00, 0.000, 0.000, 0.000, 22:13:10.252, 1541905990252
44, 27111.30, 15012.59, 0.00, 0.00, 0.00, 0.00, 0.00, 0.00, 0.000, 0.000, 0.000, 22:13:10.252, 1541905990252
45, 26729.29, 14868.16, 0.00, 0.00, 0.00, 0.00, 0.00, 0.00, 0.000, 0.000, 0.000, 22:13:10.252, 1541905990252
46, 26322.26, 14557.91, 0.00, 0.00, 0.00, 0.00, 0.00, 0.00, 0.000, 0.000, 0.000, 22:13:10.253, 1541905990253
47, 26481.41, 14556.44, 0.00, 0.00, 0.00, 0.00, 0.00, 0.00, 0.000, 0.000, 0.000, 22:13:10.253, 1541905990253
48, 26988.93, 14861.32, 0.00, 0.00, 0.00, 0.00, 0.00, 0.00, 0.098, 0.694, 0.664, 22:13:10.253, 1541905990253
49, 26751.86, 14822.16, 0.00, 0.00, 0.00, 0.00, 0.00, 0.00, 0.000, 0.000, 0.000, 22:13:10.253, 1541905990253
50, 26286.95, 14492.16, 0.00, 0.00, 0.00, 0.00, 0.00, 0.00, 0.000, 0.000, 0.000, 22:13:10.254, 1541905990254
51, 26341.57, 14423.80, 0.00, 0.00, 0.00, 0.00, 0.00, 0.00, 0.000, 0.000, 0.000, 22:13:10.254, 1541905990254
52, 26856.13, 14701.05, 0.00, 0.00, 0.00, 0.00, 0.00, 0.00, 0.000, 0.000, 0.000, 22:13:10.254, 1541905990254
53, 26780.63, 14768.00, 0.00, 0.00, 0.00, 0.00, 0.00, 0.00, 0.000, 0.000, 0.000, 22:13:10.254, 1541905990254
54, 26271.90, 14440.59, 0.00, 0.00, 0.00, 0.00, 0.00, 0.00, 0.000, 0.000, 0.000, 22:13:10.254, 1541905990254
55, 26229.62, 14327.15, 0.00, 0.00, 0.00, 0.00, 0.00, 0.00, 0.000, 0.000, 0.000, 22:13:10.255, 1541905990255
56, 26723.77, 14571.55, 0.00, 0.00, 0.00, 0.00, 0.00, 0.00, 0.000, 0.000, 0.000, 22:13:10.255, 1541905990255
57, 26812.73, 14733.55, 0.00, 0.00, 0.00, 0.00, 0.00, 0.00, 0.000, 0.000, 0.000, 22:13:10.255, 1541905990255
58, 26318.08, 14466.85, 0.00, 0.00, 0.00, 0.00, 0.00, 0.00, 0.102, 0.686, 0.660, 22:13:10.256, 1541905990256
59, 26180.75, 14305.23, 0.00, 0.00, 0.00, 0.00, 0.00, 0.00, 0.000, 0.000, 0.000, 22:13:10.256, 1541905990256
60, 26621.93, 14505.41, 0.00, 0.00, 0.00, 0.00, 0.00, 0.00, 0.000, 0.000, 0.000, 22:13:10.256, 1541905990256
61, 26876.92, 14760.47, 0.00, 0.00, 0.00, 0.00, 0.00, 0.00, 0.000, 0.000, 0.000, 22:13:10.256, 1541905990256
62, 26396.43, 14527.11, 0.00, 0.00, 0.00, 0.00, 0.00, 0.00, 0.000, 0.000, 0.000, 22:13:10.256, 1541905990256
63, 26160.50, 14313.25, 0.00, 0.00, 0.00, 0.00, 0.00, 0.00, 0.000, 0.000, 0.000, 22:13:10.256, 1541905990256
64, 26504.90, 14434.51, 0.00, 0.00, 0.00, 0.00, 0.00, 0.00, 0.000, 0.000, 0.000, 22:13:10.256, 1541905990256
65, 26894.49, 14738.16, 0.00, 0.00, 0.00, 0.00, 0.00, 0.00, 0.000, 0.000, 0.000, 22:13:10.256, 1541905990256
66, 26473.76, 14562.16, 0.00, 0.00, 0.00, 0.00, 0.00, 0.00, 0.000, 0.000, 0.000, 22:13:10.256, 1541905990256
67, 26151.61, 14303.60, 0.00, 0.00, 0.00, 0.00, 0.00, 0.00, 0.000, 0.000, 0.000, 22:13:10.257, 1541905990257
68, 26389.25, 14356.84, 0.00, 0.00, 0.00, 0.00, 0.00, 0.00, 0.000, 0.000, 0.000, 22:13:10.257, 1541905990257
69, 26871.27, 14690.97, 0.00, 0.00, 0.00, 0.00, 0.00, 0.00, 0.100, 0.682, 0.658, 22:13:10.257, 1541905990257
70, 26566.90, 14630.58, 0.00, 0.00, 0.00, 0.00, 0.00, 0.00, 0.000, 0.000, 0.000, 22:13:10.257, 1541905990257
71, 26187.88, 14367.83, 0.00, 0.00, 0.00, 0.00, 0.00, 0.00, 0.000, 0.000, 0.000, 22:13:10.257, 1541905990257
72, 26350.36, 14383.26, 0.00, 0.00, 0.00, 0.00, 0.00, 0.00, 0.000, 0.000, 0.000, 22:13:10.257, 1541905990257
73, 26883.60, 14706.93, 0.00, 0.00, 0.00, 0.00, 0.00, 0.00, 0.000, 0.000, 0.000, 22:13:10.258, 1541905990258
74, 26712.77, 14724.52, 0.00, 0.00, 0.00, 0.00, 0.00, 0.00, 0.000, 0.000, 0.000, 22:13:10.258, 1541905990258
75, 26262.56, 14424.21, 0.00, 0.00, 0.00, 0.00, 0.00, 0.00, 0.000, 0.000, 0.000, 22:13:10.258, 1541905990258
76, 26292.20, 14345.26, 0.00, 0.00, 0.00, 0.00, 0.00, 0.00, 0.000, 0.000, 0.000, 22:13:10.258, 1541905990258
77, 26809.89, 14619.96, 0.00, 0.00, 0.00, 0.00, 0.00, 0.00, 0.000, 0.000, 0.000, 22:13:10.258, 1541905990258
78, 26801.51, 14741.80, 0.00, 0.00, 0.00, 0.00, 0.00, 0.00, 0.000, 0.000, 0.000, 22:13:10.258, 1541905990258
79, 26316.72, 14452.48, 0.00, 0.00, 0.00, 0.00, 0.00, 0.00, 0.110, 0.684, 0.652, 22:13:10.258, 1541905990258
80, 26245.17, 14324.58, 0.00, 0.00, 0.00, 0.00, 0.00, 0.00, 0.000, 0.000, 0.000, 22:13:10.258, 1541905990258
81, 26706.38, 14545.64, 0.00, 0.00, 0.00, 0.00, 0.00, 0.00, 0.000, 0.000, 0.000, 22:13:10.258, 1541905990258
82, 26845.58, 14748.82, 0.00, 0.00, 0.00, 0.00, 0.00, 0.00, 0.000, 0.000, 0.000, 22:13:10.259, 1541905990259
83, 26353.13, 14482.46, 0.00, 0.00, 0.00, 0.00, 0.00, 0.00, 0.000, 0.000, 0.000, 22:13:10.259, 1541905990259
84, 26182.32, 14292.42, 0.00, 0.00, 0.00, 0.00, 0.00, 0.00, 0.000, 0.000, 0.000, 22:13:10.259, 1541905990259
85, 26567.33, 14435.72, 0.00, 0.00, 0.00, 0.00, 0.00, 0.00, 0.000, 0.000, 0.000, 22:13:10.259, 1541905990259
86, 26850.43, 14697.68, 0.00, 0.00, 0.00, 0.00, 0.00, 0.00, 0.000, 0.000, 0.000, 22:13:10.259, 1541905990259
87, 26397.59, 14495.60, 0.00, 0.00, 0.00, 0.00, 0.00, 0.00, 0.000, 0.000, 0.000, 22:13:10.259, 1541905990259
88, 26149.21, 14278.47, 0.00, 0.00, 0.00, 0.00, 0.00, 0.00, 0.000, 0.000, 0.000, 22:13:10.259, 1541905990259
89, 26461.34, 14381.54, 0.00, 0.00, 0.00, 0.00, 0.00, 0.00, 0.132, 0.686, 0.646, 22:13:10.259, 1541905990259
90, 26879.78, 14697.46, 0.00, 0.00, 0.00, 0.00, 0.00, 0.00, 0.000, 0.000, 0.000, 22:13:10.259, 1541905990259
91, 26506.84, 14572.78, 0.00, 0.00, 0.00, 0.00, 0.00, 0.00, 0.000, 0.000, 0.000, 22:13:10.259, 1541905990259
92, 26174.07, 14320.40, 0.00, 0.00, 0.00, 0.00, 0.00, 0.00, 0.000, 0.000, 0.000, 22:13:10.259, 1541905990259
93, 26382.59, 14357.96, 0.00, 0.00, 0.00, 0.00, 0.00, 0.00, 0.000, 0.000, 0.000, 22:13:10.260, 1541905990260
94, 26873.97, 14684.69, 0.00, 0.00, 0.00, 0.00, 0.00, 0.00, 0.000, 0.000, 0.000, 22:13:10.260, 1541905990260
95, 26600.65, 14638.31, 0.00, 0.00, 0.00, 0.00, 0.00, 0.00, 0.000, 0.000, 0.000, 22:13:10.260, 1541905990260
96, 26190.86, 14347.52, 0.00, 0.00, 0.00, 0.00, 0.00, 0.00, 0.000, 0.000, 0.000, 22:13:10.260, 1541905990260
97, 26300.89, 14320.00, 0.00, 0.00, 0.00, 0.00, 0.00, 0.00, 0.000, 0.000, 0.000, 22:13:10.260, 1541905990260
98, 26816.46, 14617.39, 0.00, 0.00, 0.00, 0.00, 0.00, 0.00, 0.000, 0.000, 0.000, 22:13:10.260, 1541905990260
99, 26684.09, 14669.49, 0.00, 0.00, 0.00, 0.00, 0.00, 0.00, 0.140, 0.692, 0.646, 22:13:10.260, 1541905990260
100, 26221.79, 14377.94, 0.00, 0.00, 0.00, 0.00, 0.00, 0.00, 0.000, 0.000, 0.000, 22:13:10.260, 1541905990260
101, 26225.61, 14289.22, 0.00, 0.00, 0.00, 0.00, 0.00, 0.00, 0.000, 0.000, 0.000, 22:13:10.260, 1541905990260
102, 26723.39, 14541.89, 0.00, 0.00, 0.00, 0.00, 0.00, 0.00, 0.000, 0.000, 0.000, 22:13:10.260, 1541905990260
103, 26754.23, 14691.69, 0.00, 0.00, 0.00, 0.00, 0.00, 0.00, 0.000, 0.000, 0.000, 22:13:10.260, 1541905990260
104, 26280.89, 14422.49, 0.00, 0.00, 0.00, 0.00, 0.00, 0.00, 0.000, 0.000, 0.000, 22:13:10.261, 1541905990261
105, 26187.55, 14273.18, 0.00, 0.00, 0.00, 0.00, 0.00, 0.00, 0.000, 0.000, 0.000, 22:13:10.261, 1541905990261
106, 26637.76, 14475.55, 0.00, 0.00, 0.00, 0.00, 0.00, 0.00, 0.000, 0.000, 0.000, 22:13:10.261, 1541905990261
107, 26826.83, 14707.76, 0.00, 0.00, 0.00, 0.00, 0.00, 0.00, 0.000, 0.000, 0.000, 22:13:10.261, 1541905990261
108, 26350.76, 14471.03, 0.00, 0.00, 0.00, 0.00, 0.00, 0.00, 0.000, 0.000, 0.000, 22:13:10.261, 1541905990261
109, 26149.84, 14270.31, 0.00, 0.00, 0.00, 0.00, 0.00, 0.00, 0.138, 0.692, 0.648, 22:13:10.261, 1541905990261
110, 26522.89, 14411.38, 0.00, 0.00, 0.00, 0.00, 0.00, 0.00, 0.000, 0.000, 0.000, 22:13:10.261, 1541905990261
111, 26853.56, 14694.62, 0.00, 0.00, 0.00, 0.00, 0.00, 0.00, 0.000, 0.000, 0.000, 22:13:10.261, 1541905990261
112, 26422.42, 14508.81, 0.00, 0.00, 0.00, 0.00, 0.00, 0.00, 0.000, 0.000, 0.000, 22:13:10.261, 1541905990261
113, 26143.74, 14263.63, 0.00, 0.00, 0.00, 0.00, 0.00, 0.00, 0.000, 0.000, 0.000, 22:13:10.261, 1541905990261
114, 26423.25, 14332.74, 0.00, 0.00, 0.00, 0.00, 0.00, 0.00, 0.000, 0.000, 0.000, 22:13:10.261, 1541905990261
115, 26846.32, 14637.91, 0.00, 0.00, 0.00, 0.00, 0.00, 0.00, 0.000, 0.000, 0.000, 22:13:10.261, 1541905990261
116, 26494.59, 14535.43, 0.00, 0.00, 0.00, 0.00, 0.00, 0.00, 0.000, 0.000, 0.000, 22:13:10.262, 1541905990262
117, 26145.26, 14274.05, 0.00, 0.00, 0.00, 0.00, 0.00, 0.00, 0.000, 0.000, 0.000, 22:13:10.262, 1541905990262
118, 26322.62, 14287.17, 0.00, 0.00, 0.00, 0.00, 0.00, 0.00, 0.000, 0.000, 0.000, 22:13:10.262, 1541905990262
119, 26815.07, 14599.47, 0.00, 0.00, 0.00, 0.00, 0.00, 0.00, 0.128, 0.684, 0.646, 22:13:10.262, 1541905990262
120, 26590.93, 14597.23, 0.00, 0.00, 0.00, 0.00, 0.00, 0.00, 0.000, 0.000, 0.000, 22:13:10.262, 1541905990262
121, 26175.05, 14317.70, 0.00, 0.00, 0.00, 0.00, 0.00, 0.00, 0.000, 0.000, 0.000, 22:13:10.262, 1541905990262
122, 26255.05, 14269.24, 0.00, 0.00, 0.00, 0.00, 0.00, 0.00, 0.000, 0.000, 0.000, 22:13:10.711, 1541905990711
123, 26768.69, 14551.95, 0.00, 0.00, 0.00, 0.00, 0.00, 0.00, 0.000, 0.000, 0.000, 22:13:10.711, 1541905990711
124, 26681.48, 14627.45, 0.00, 0.00, 0.00, 0.00, 0.00, 0.00, 0.000, 0.000, 0.000, 22:13:10.712, 1541905990712
125, 26218.06, 14334.93, 0.00, 0.00, 0.00, 0.00, 0.00, 0.00, 0.000, 0.000, 0.000, 22:13:10.712, 1541905990712
126, 26198.21, 14227.58, 0.00, 0.00, 0.00, 0.00, 0.00, 0.00, 0.000, 0.000, 0.000, 22:13:10.712, 1541905990712
127, 26680.52, 14471.93, 0.00, 0.00, 0.00, 0.00, 0.00, 0.00, 0.000, 0.000, 0.000, 22:13:10.712, 1541905990712
128, 26742.14, 14643.28, 0.00, 0.00, 0.00, 0.00, 0.00, 0.00, 0.000, 0.000, 0.000, 22:13:10.712, 1541905990712
129, 26251.70, 14371.23, 0.00, 0.00, 0.00, 0.00, 0.00, 0.00, 0.120, 0.682, 0.654, 22:13:10.712, 1541905990712
130, 26130.33, 14213.72, 0.00, 0.00, 0.00, 0.00, 0.00, 0.00, 0.000, 0.000, 0.000, 22:13:10.712, 1541905990712
131, 26563.57, 14403.13, 0.00, 0.00, 0.00, 0.00, 0.00, 0.00, 0.000, 0.000, 0.000, 22:13:10.712, 1541905990712
132, 26788.30, 14642.36, 0.00, 0.00, 0.00, 0.00, 0.00, 0.00, 0.000, 0.000, 0.000, 22:13:10.713, 1541905990713
133, 26332.10, 14417.72, 0.00, 0.00, 0.00, 0.00, 0.00, 0.00, 0.000, 0.000, 0.000, 22:13:10.713, 1541905990713
134, 26119.91, 14211.66, 0.00, 0.00, 0.00, 0.00, 0.00, 0.00, 0.000, 0.000, 0.000, 22:13:10.713, 1541905990713
135, 26463.64, 14337.35, 0.00, 0.00, 0.00, 0.00, 0.00, 0.00, 0.000, 0.000, 0.000, 22:13:10.713, 1541905990713
136, 26815.43, 14611.07, 0.00, 0.00, 0.00, 0.00, 0.00, 0.00, 0.000, 0.000, 0.000, 22:13:10.713, 1541905990713
137, 26401.70, 14446.89, 0.00, 0.00, 0.00, 0.00, 0.00, 0.00, 0.000, 0.000, 0.000, 22:13:10.713, 1541905990713
138, 26099.42, 14204.58, 0.00, 0.00, 0.00, 0.00, 0.00, 0.00, 0.000, 0.000, 0.000, 22:13:10.713, 1541905990713
139, 26346.51, 14263.16, 0.00, 0.00, 0.00, 0.00, 0.00, 0.00, 0.000, 0.000, 0.000, 22:13:10.713, 1541905990713
140, 26792.83, 14571.57, 0.00, 0.00, 0.00, 0.00, 0.00, 0.00, 0.114, 0.684, 0.656, 22:13:10.713, 1541905990713
141, 26472.53, 14493.70, 0.00, 0.00, 0.00, 0.00, 0.00, 0.00, 0.000, 0.000, 0.000, 22:13:10.713, 1541905990713
142, 26101.25, 14214.43, 0.00, 0.00, 0.00, 0.00, 0.00, 0.00, 0.000, 0.000, 0.000, 22:13:10.714, 1541905990714
143, 26265.65, 14221.86, 0.00, 0.00, 0.00, 0.00, 0.00, 0.00, 0.000, 0.000, 0.000, 22:13:10.714, 1541905990714
144, 26768.22, 14533.57, 0.00, 0.00, 0.00, 0.00, 0.00, 0.00, 0.000, 0.000, 0.000, 22:13:10.714, 1541905990714
145, 26567.30, 14536.81, 0.00, 0.00, 0.00, 0.00, 0.00, 0.00, 0.000, 0.000, 0.000, 22:13:10.714, 1541905990714
146, 26131.38, 14242.89, 0.00, 0.00, 0.00, 0.00, 0.00, 0.00, 0.000, 0.000, 0.000, 22:13:10.714, 1541905990714
147, 26193.92, 14189.47, 0.00, 0.00, 0.00, 0.00, 0.00, 0.00, 0.000, 0.000, 0.000, 22:13:10.714, 1541905990714
148, 26705.60, 14470.56, 0.00, 0.00, 0.00, 0.00, 0.00, 0.00, 0.000, 0.000, 0.000, 22:13:10.714, 1541905990714
149, 26663.71, 14576.80, 0.00, 0.00, 0.00, 0.00, 0.00, 0.00, 0.000, 0.000, 0.000, 22:13:10.714, 1541905990714
150, 26193.25, 14290.16, 0.00, 0.00, 0.00, 0.00, 0.00, 0.00, 0.106, 0.686, 0.656, 22:13:10.715, 1541905990715
151, 26142.11, 14169.84, 0.00, 0.00, 0.00, 0.00, 0.00, 0.00, 0.000, 0.000, 0.000, 22:13:10.715, 1541905990715
152, 26612.79, 14396.22, 0.00, 0.00, 0.00, 0.00, 0.00, 0.00, 0.000, 0.000, 0.000, 22:13:10.715, 1541905990715
153, 26722.05, 14580.44, 0.00, 0.00, 0.00, 0.00, 0.00, 0.00, 0.000, 0.000, 0.000, 22:13:10.715, 1541905990715
154, 26243.70, 14323.49, 0.00, 0.00, 0.00, 0.00, 0.00, 0.00, 0.000, 0.000, 0.000, 22:13:10.715, 1541905990715
155, 26102.28, 14160.70, 0.00, 0.00, 0.00, 0.00, 0.00, 0.00, 0.000, 0.000, 0.000, 22:13:10.715, 1541905990715
156, 26506.87, 14324.20, 0.00, 0.00, 0.00, 0.00, 0.00, 0.00, 0.000, 0.000, 0.000, 22:13:10.715, 1541905990715
157, 26767.06, 14572.33, 0.00, 0.00, 0.00, 0.00, 0.00, 0.00, 0.000, 0.000, 0.000, 22:13:10.715, 1541905990715
158, 26327.16, 14369.91, 0.00, 0.00, 0.00, 0.00, 0.00, 0.00, 0.000, 0.000, 0.000, 22:13:10.716, 1541905990716
159, 26087.97, 14165.57, 0.00, 0.00, 0.00, 0.00, 0.00, 0.00, 0.000, 0.000, 0.000, 22:13:10.716, 1541905990716
160, 26409.17, 14278.76, 0.00, 0.00, 0.00, 0.00, 0.00, 0.00, 0.112, 0.688, 0.656, 22:13:10.716, 1541905990716
161, 26797.86, 14589.54, 0.00, 0.00, 0.00, 0.00, 0.00, 0.00, 0.000, 0.000, 0.000, 22:13:10.717, 1541905990717
162, 26410.62, 14454.63, 0.00, 0.00, 0.00, 0.00, 0.00, 0.00, 0.000, 0.000, 0.000, 22:13:10.717, 1541905990717
163, 26093.47, 14208.20, 0.00, 0.00, 0.00, 0.00, 0.00, 0.00, 0.000, 0.000, 0.000, 22:13:10.718, 1541905990718
164, 26320.54, 14262.36, 0.00, 0.00, 0.00, 0.00, 0.00, 0.00, 0.000, 0.000, 0.000, 22:13:10.718, 1541905990718
165, 26778.30, 14584.09, 0.00, 0.00, 0.00, 0.00, 0.00, 0.00, 0.000, 0.000, 0.000, 22:13:10.718, 1541905990718
166, 26487.33, 14534.60, 0.00, 0.00, 0.00, 0.00, 0.00, 0.00, 0.000, 0.000, 0.000, 22:13:10.719, 1541905990719
167, 26097.09, 14263.27, 0.00, 0.00, 0.00, 0.00, 0.00, 0.00, 0.000, 0.000, 0.000, 22:13:10.719, 1541905990719
168, 26228.94, 14252.57, 0.00, 0.00, 0.00, 0.00, 0.00, 0.00, 0.000, 0.000, 0.000, 22:13:10.719, 1541905990719
169, 26740.02, 14558.50, 0.00, 0.00, 0.00, 0.00, 0.00, 0.00, 0.000, 0.000, 0.000, 22:13:10.719, 1541905990719
170, 26593.95, 14600.56, 0.00, 0.00, 0.00, 0.00, 0.00, 0.00, 0.120, 0.688, 0.654, 22:13:10.719, 1541905990719
171, 26147.70, 14307.33, 0.00, 0.00, 0.00, 0.00, 0.00, 0.00, 0.000, 0.000, 0.000, 22:13:10.720, 1541905990720
172, 26168.84, 14218.23, 0.00, 0.00, 0.00, 0.00, 0.00, 0.00, 0.000, 0.000, 0.000, 22:13:10.720, 1541905990720
173, 26672.98, 14486.19, 0.00, 0.00, 0.00, 0.00, 0.00, 0.00, 0.000, 0.000, 0.000, 22:13:10.720, 1541905990720
174, 26685.68, 14627.81, 0.00, 0.00, 0.00, 0.00, 0.00, 0.00, 0.000, 0.000, 0.000, 22:13:10.720, 1541905990720
175, 26222.06, 14361.69, 0.00, 0.00, 0.00, 0.00, 0.00, 0.00, 0.000, 0.000, 0.000, 22:13:10.720, 1541905990720
176, 26154.31, 14235.60, 0.00, 0.00, 0.00, 0.00, 0.00, 0.00, 0.000, 0.000, 0.000, 22:13:10.720, 1541905990720
177, 26615.58, 14451.81, 0.00, 0.00, 0.00, 0.00, 0.00, 0.00, 0.000, 0.000, 0.000, 22:13:10.720, 1541905990720
178, 26764.76, 14654.79, 0.00, 0.00, 0.00, 0.00, 0.00, 0.00, 0.000, 0.000, 0.000, 22:13:10.720, 1541905990720
179, 26299.89, 14417.48, 0.00, 0.00, 0.00, 0.00, 0.00, 0.00, 0.000, 0.000, 0.000, 22:13:10.720, 1541905990720
180, 26132.05, 14237.30, 0.00, 0.00, 0.00, 0.00, 0.00, 0.00, 0.112, 0.682, 0.656, 22:13:10.721, 1541905990721
181, 26507.36, 14381.40, 0.00, 0.00, 0.00, 0.00, 0.00, 0.00, 0.000, 0.000, 0.000, 22:13:10.721, 1541905990721
182, 26795.54, 14650.23, 0.00, 0.00, 0.00, 0.00, 0.00, 0.00, 0.000, 0.000, 0.000, 22:13:10.721, 1541905990721
183, 26355.21, 14456.64, 0.00, 0.00, 0.00, 0.00, 0.00, 0.00, 0.000, 0.000, 0.000, 22:13:10.721, 1541905990721
184, 26090.74, 14221.95, 0.00, 0.00, 0.00, 0.00, 0.00, 0.00, 0.000, 0.000, 0.000, 22:13:10.721, 1541905990721
185, 26386.50, 14313.32, 0.00, 0.00, 0.00, 0.00, 0.00, 0.00, 0.000, 0.000, 0.000, 22:13:10.721, 1541905990721
186, 26791.56, 14618.33, 0.00, 0.00, 0.00, 0.00, 0.00, 0.00, 0.000, 0.000, 0.000, 22:13:10.721, 1541905990721
187, 26426.78, 14494.68, 0.00, 0.00, 0.00, 0.00, 0.00, 0.00, 0.000, 0.000, 0.000, 22:13:10.721, 1541905990721
188, 26092.15, 14234.60, 0.00, 0.00, 0.00, 0.00, 0.00, 0.00, 0.000, 0.000, 0.000, 22:13:10.721, 1541905990721
189, 26296.22, 14265.20, 0.00, 0.00, 0.00, 0.00, 0.00, 0.00, 0.000, 0.000, 0.000, 22:13:10.721, 1541905990721
190, 26772.38, 14575.73, 0.00, 0.00, 0.00, 0.00, 0.00, 0.00, 0.102, 0.696, 0.652, 22:13:10.722, 1541905990722
191, 26513.77, 14536.37, 0.00, 0.00, 0.00, 0.00, 0.00, 0.00, 0.000, 0.000, 0.000, 22:13:10.722, 1541905990722
192, 26106.32, 14252.57, 0.00, 0.00, 0.00, 0.00, 0.00, 0.00, 0.000, 0.000, 0.000, 22:13:10.722, 1541905990722
193, 26202.70, 14216.51, 0.00, 0.00, 0.00, 0.00, 0.00, 0.00, 0.000, 0.000, 0.000, 22:13:10.722, 1541905990722
194, 26703.00, 14500.87, 0.00, 0.00, 0.00, 0.00, 0.00, 0.00, 0.000, 0.000, 0.000, 22:13:10.722, 1541905990722
195, 26588.92, 14558.76, 0.00, 0.00, 0.00, 0.00, 0.00, 0.00, 0.000, 0.000, 0.000, 22:13:10.722, 1541905990722
196, 26137.77, 14270.65, 0.00, 0.00, 0.00, 0.00, 0.00, 0.00, 0.000, 0.000, 0.000, 22:13:10.722, 1541905990722
197, 26132.32, 14179.97, 0.00, 0.00, 0.00, 0.00, 0.00, 0.00, 0.000, 0.000, 0.000, 22:13:10.722, 1541905990722
198, 26620.30, 14435.94, 0.00, 0.00, 0.00, 0.00, 0.00, 0.00, 0.000, 0.000, 0.000, 22:13:10.722, 1541905990722
199, 26656.22, 14587.51, 0.00, 0.00, 0.00, 0.00, 0.00, 0.00, 0.000, 0.000, 0.000, 22:13:10.723, 1541905990723
200, 26180.42, 14315.82, 0.00, 0.00, 0.00, 0.00, 0.00, 0.00, 0.096, 0.694, 0.652, 22:13:10.723, 1541905990723
201, 26081.09, 14177.08, 0.00, 0.00, 0.00, 0.00, 0.00, 0.00, 0.000, 0.000, 0.000, 22:13:10.723, 1541905990723
202, 26527.90, 14391.04, 0.00, 0.00, 0.00, 0.00, 0.00, 0.00, 0.000, 0.000, 0.000, 22:13:10.723, 1541905990723
203, 26721.93, 14622.91, 0.00, 0.00, 0.00, 0.00, 0.00, 0.00, 0.000, 0.000, 0.000, 22:13:10.723, 1541905990723
204, 26257.67, 14392.29, 0.00, 0.00, 0.00, 0.00, 0.00, 0.00, 0.000, 0.000, 0.000, 22:13:10.723, 1541905990723
205, 26070.04, 14202.70, 0.00, 0.00, 0.00, 0.00, 0.00, 0.00, 0.000, 0.000, 0.000, 22:13:10.723, 1541905990723
206, 26441.38, 14343.14, 0.00, 0.00, 0.00, 0.00, 0.00, 0.00, 0.000, 0.000, 0.000, 22:13:10.723, 1541905990723
207, 26774.35, 14627.74, 0.00, 0.00, 0.00, 0.00, 0.00, 0.00, 0.000, 0.000, 0.000, 22:13:10.723, 1541905990723
208, 26351.34, 14448.52, 0.00, 0.00, 0.00, 0.00, 0.00, 0.00, 0.000, 0.000, 0.000, 22:13:10.723, 1541905990723
209, 26083.10, 14227.31, 0.00, 0.00, 0.00, 0.00, 0.00, 0.00, 0.000, 0.000, 0.000, 22:13:10.723, 1541905990723
210, 26351.74, 14302.28, 0.00, 0.00, 0.00, 0.00, 0.00, 0.00, 0.000, 0.000, 0.000, 22:13:10.724, 1541905990724
211, 26771.53, 14599.02, 0.00, 0.00, 0.00, 0.00, 0.00, 0.00, 0.102, 0.688, 0.654, 22:13:10.724, 1541905990724
212, 26435.54, 14502.77, 0.00, 0.00, 0.00, 0.00, 0.00, 0.00, 0.000, 0.000, 0.000, 22:13:10.724, 1541905990724
213, 26080.75, 14243.45, 0.00, 0.00, 0.00, 0.00, 0.00, 0.00, 0.000, 0.000, 0.000, 22:13:10.724, 1541905990724
214, 26252.30, 14251.00, 0.00, 0.00, 0.00, 0.00, 0.00, 0.00, 0.000, 0.000, 0.000, 22:13:10.724, 1541905990724
215, 26735.46, 14551.50, 0.00, 0.00, 0.00, 0.00, 0.00, 0.00, 0.000, 0.000, 0.000, 22:13:10.724, 1541905990724
216, 26518.15, 14543.25, 0.00, 0.00, 0.00, 0.00, 0.00, 0.00, 0.000, 0.000, 0.000, 22:13:10.724, 1541905990724
217, 26098.61, 14253.95, 0.00, 0.00, 0.00, 0.00, 0.00, 0.00, 0.000, 0.000, 0.000, 22:13:10.724, 1541905990724
218, 26166.27, 14197.09, 0.00, 0.00, 0.00, 0.00, 0.00, 0.00, 0.000, 0.000, 0.000, 22:13:10.724, 1541905990724
219, 26666.48, 14476.17, 0.00, 0.00, 0.00, 0.00, 0.00, 0.00, 0.000, 0.000, 0.000, 22:13:10.724, 1541905990724
220, 26583.82, 14554.65, 0.00, 0.00, 0.00, 0.00, 0.00, 0.00, 0.000, 0.000, 0.000, 22:13:10.724, 1541905990724
221, 26117.21, 14260.90, 0.00, 0.00, 0.00, 0.00, 0.00, 0.00, 0.104, 0.688, 0.650, 22:13:10.725, 1541905990725
222, 26082.52, 14145.32, 0.00, 0.00, 0.00, 0.00, 0.00, 0.00, 0.000, 0.000, 0.000, 22:13:10.725, 1541905990725
223, 26550.79, 14381.33, 0.00, 0.00, 0.00, 0.00, 0.00, 0.00, 0.000, 0.000, 0.000, 22:13:10.725, 1541905990725
224, 26641.20, 14560.84, 0.00, 0.00, 0.00, 0.00, 0.00, 0.00, 0.000, 0.000, 0.000, 22:13:10.725, 1541905990725
225, 26175.03, 14303.80, 0.00, 0.00, 0.00, 0.00, 0.00, 0.00, 0.000, 0.000, 0.000, 22:13:10.725, 1541905990725
226, 26044.56, 14137.28, 0.00, 0.00, 0.00, 0.00, 0.00, 0.00, 0.000, 0.000, 0.000, 22:13:10.725, 1541905990725
227, 26455.26, 14311.15, 0.00, 0.00, 0.00, 0.00, 0.00, 0.00, 0.000, 0.000, 0.000, 22:13:10.725, 1541905990725
228, 26694.73, 14562.61, 0.00, 0.00, 0.00, 0.00, 0.00, 0.00, 0.000, 0.000, 0.000, 22:13:10.725, 1541905990725
229, 26246.11, 14348.50, 0.00, 0.00, 0.00, 0.00, 0.00, 0.00, 0.000, 0.000, 0.000, 22:13:10.725, 1541905990725
230, 26038.42, 14154.71, 0.00, 0.00, 0.00, 0.00, 0.00, 0.00, 0.000, 0.000, 0.000, 22:13:10.726, 1541905990726
231, 26378.25, 14282.88, 0.00, 0.00, 0.00, 0.00, 0.00, 0.00, 0.110, 0.694, 0.646, 22:13:10.726, 1541905990726
232, 26738.18, 14578.41, 0.00, 0.00, 0.00, 0.00, 0.00, 0.00, 0.000, 0.000, 0.000, 22:13:10.726, 1541905990726
233, 26345.58, 14424.56, 0.00, 0.00, 0.00, 0.00, 0.00, 0.00, 0.000, 0.000, 0.000, 22:13:10.726, 1541905990726
234, 26047.74, 14179.75, 0.00, 0.00, 0.00, 0.00, 0.00, 0.00, 0.000, 0.000, 0.000, 22:13:10.726, 1541905990726
235, 26282.72, 14226.80, 0.00, 0.00, 0.00, 0.00, 0.00, 0.00, 0.000, 0.000, 0.000, 22:13:10.726, 1541905990726
0, -186987.58, -187061.27, -172408.16, -113819.30, -144210.52, -178496.69, -142283.98, -126632.84, 0.020, 0.110, 0.480, 22:13:33.917, 1541906013917
1, -186947.55, -187021.22, -172288.97, -113697.82, -143974.08, -178253.69, -142140.61, -126437.24, 0.000, 0.000, 0.000, 22:13:33.918, 1541906013918
2, -186932.86, -187006.56, -172430.56, -113824.40, -143989.70, -178257.69, -142252.63, -126499.25, 0.000, 0.000, 0.000, 22:13:33.918, 1541906013918
3, -186942.50, -187016.50, -172898.05, -114271.79, -144330.11, -178579.66, -142692.22, -126888.68, 0.000, 0.000, 0.000, 22:13:33.918, 1541906013918
4, -186941.89, -187015.86, -173241.33, -114598.64, -144551.20, -178783.66, -143009.05, -127152.61, 0.000, 0.000, 0.000, 22:13:33.918, 1541906013918
5, -186907.53, -186981.23, -173168.59, -114520.97, -144359.92, -178585.83, -142913.45, -126999.68, 0.000, 0.000, 0.000, 22:13:33.918, 1541906013918
6, -186885.28, -186958.95, -173232.25, -114573.01, -144297.81, -178515.69, -142950.05, -126981.69, 0.000, 0.000, 0.000, 22:13:33.918, 1541906013918
7, -186895.36, -186969.00, -173696.14, -115013.73, -144631.25, -178822.48, -143382.41, -127364.13, 0.028, 0.176, 0.724, 22:13:33.918, 1541906013918
8, -186900.67, -186974.39, -174111.39, -115410.79, -144923.77, -178952.02, -143768.84, -127702.24, 0.000, 0.000, 0.000, 22:13:33.919, 1541906013919
9, -186875.55, -186949.22, -174148.31, -115442.17, -144846.66, -178888.05, -143782.48, -127663.48, 0.000, 0.000, 0.000, 22:13:33.919, 1541906013919
10, -186846.34, -186919.97, -174124.31, -115411.13, -144702.69, -178795.20, -143731.69, -127559.48, 0.000, 0.000, 0.000, 22:13:33.919, 1541906013919
11, -186849.27, -186922.92, -174497.83, -115763.81, -144951.22, -178902.22, -144072.03, -127851.02, 0.000, 0.000, 0.000, 22:13:33.919, 1541906013919
12, -186858.55, -186932.13, -174951.45, -116196.92, -145292.08, -178965.38, -144497.30, -128226.41, 0.000, 0.000, 0.000, 22:13:33.920, 1541906013920
13, -186841.69, -186915.31, -175094.73, -116330.77, -145330.81, -178942.97, -144617.17, -128293.60, 0.000, 0.000, 0.000, 22:13:33.920, 1541906013920
14, -186808.92, -186882.53, -175035.25, -116264.49, -145155.63, -178900.05, -144533.06, -128154.55, 0.000, 0.000, 0.000, 22:13:33.920, 1541906013920
15, -186805.80, -186879.39, -175334.86, -116546.62, -145332.73, -178894.06, -144802.17, -128373.20, 0.000, 0.000, 0.000, 22:13:33.920, 1541906013920
16, -186817.55, -186891.13, -175833.41, -117025.19, -145718.84, -179041.31, -145271.31, -128793.56, 0.000, 0.000, 0.000, 22:13:33.920, 1541906013920
17, -186804.14, -186877.72, -176048.06, -117228.91, -145828.09, -179048.73, -145462.06, -128930.24, 0.030, 0.202, 0.838, 22:13:33.920, 1541906013920
18, -186767.84, -186841.53, -175911.95, -117089.12, -145582.42, -178892.34, -145302.73, -128715.38, 0.000, 0.000, 0.000, 22:13:33.920, 1541906013920
19, -186764.28, -186837.89, -176177.50, -117339.16, -145729.53, -178866.00, -145539.89, -128902.53, 0.000, 0.000, 0.000, 22:13:33.920, 1541906013920
20, -186778.64, -186852.17, -176682.83, -117825.07, -146123.89, -179045.89, -146016.88, -129330.67, 0.000, 0.000, 0.000, 22:13:33.920, 1541906013920
21, -186774.09, -186847.59, -176972.56, -118102.61, -146308.77, -179101.92, -146283.88, -129543.98, 0.000, 0.000, 0.000, 22:13:33.920, 1541906013920
22, -186740.48, -186814.13, -176880.56, -118006.84, -146109.75, -178887.73, -146170.70, -129375.23, 0.000, 0.000, 0.000, 22:13:33.921, 1541906013921
23, -186723.94, -186797.66, -177012.27, -118126.87, -146124.77, -178801.36, -146274.64, -129424.91, 0.000, 0.000, 0.000, 22:13:33.921, 1541906013921
24, -186732.91, -186806.53, -177483.78, -118580.29, -146484.09, -178961.20, -146717.42, -129815.30, 0.000, 0.000, 0.000, 22:13:33.921, 1541906013921
25, -186740.38, -186813.97, -177919.50, -119000.93, -146814.44, -179156.78, -147127.52, -130173.05, 0.000, 0.000, 0.000, 22:13:33.922, 1541906013922
26, -186720.95, -186794.58, -178021.06, -119095.73, -146814.61, -179031.20, -147205.95, -130198.39, 0.000, 0.000, 0.000, 22:13:33.923, 1541906013923
27, -186700.22, -186773.88, -178085.70, -119152.48, -146772.88, -178865.11, -147244.84, -130185.52, 0.036, 0.206, 0.902, 22:13:33.923, 1541906013923
28, -186705.97, -186779.58, -178483.44, -119533.34, -147060.91, -179021.34, -147615.47, -130505.77, 0.000, 0.000, 0.000, 22:13:33.923, 1541906013923
29, -186716.16, -186789.81, -178956.11, -119988.50, -147425.17, -179251.47, -148061.69, -130900.06, 0.000, 0.000, 0.000, 22:13:33.923, 1541906013923
30, -186708.94, -186782.64, -179215.59, -120238.84, -147582.89, -179278.84, -148299.11, -131082.84, 0.000, 0.000, 0.000, 22:13:33.923, 1541906013923
31, -186690.39, -186764.11, -179311.66, -120326.25, -147572.58, -179143.69, -148371.28, -131101.45, 0.000, 0.000, 0.000, 22:13:33.924, 1541906013924
32, -186687.28, -186760.98, -179558.00, -120616.42, -147766.08, -179208.17, -148646.84, -131327.69, 0.000, 0.000, 0.000, 22:13:33.924, 1541906013924
33, -186698.42, -186772.16, -179816.05, -121082.28, -148131.59, -179437.31, -149090.88, -131723.23, 0.000, 0.000, 0.000, 22:13:33.924, 1541906013924
34, -186694.70, -186768.53, -179932.97, -121391.18, -148333.45, -179507.44, -149372.72, -131953.50, 0.000, 0.000, 0.000, 22:13:33.924, 1541906013924
35, -186671.59, -186745.33, -179817.41, -121458.46, -148287.59, -179337.25, -149408.52, -131937.14, 0.000, 0.000, 0.000, 22:13:33.924, 1541906013924
36, -186666.09, -186739.83, -179878.77, -121731.26, -148448.17, -179364.92, -149653.00, -132129.31, 0.000, 0.000, 0.000, 22:13:33.925, 1541906013925
37, -186679.03, -186752.78, -179999.52, -122230.73, -148834.97, -179476.98, -150118.80, -132544.64, 0.042, 0.220, 0.930, 22:13:33.925, 1541906013925
38, -186684.67, -186758.27, -180042.77, -122635.61, -149128.23, -179456.83, -150482.06, -132854.23, 0.000, 0.000, 0.000, 22:13:33.925, 1541906013925
39, -186664.17, -186737.83, -179973.20, -122746.97, -149124.17, -179464.61, -150552.20, -132869.89, 0.000, 0.000, 0.000, 22:13:33.925, 1541906013925
40, -186652.50, -186726.20, -179960.84, -122945.92, -149207.97, -179446.44, -150717.27, -132983.02, 0.000, 0.000, 0.000, 22:13:33.925, 1541906013925
41, -186660.84, -186734.53, -180000.42, -123382.56, -149526.11, -179453.05, -151115.69, -133328.86, 0.000, 0.000, 0.000, 22:13:33.925, 1541906013925
42, -186667.02, -186740.64, -180058.20, -123807.90, -149836.02, -179433.06, -151497.19, -133655.77, 0.000, 0.000, 0.000, 22:13:33.926, 1541906013926
43, -186646.22, -186719.89, -179961.17, -123930.95, -149841.78, -179439.38, -151577.56, -133679.44, 0.000, 0.000, 0.000, 22:13:33.926, 1541906013926
44, -186629.39, -186703.05, -179928.66, -124074.02, -149869.48, -179403.88, -151688.48, -133736.42, 0.000, 0.000, 0.000, 22:13:33.926, 1541906013926
45, -186636.66, -186710.31, -179959.31, -124484.30, -150165.77, -179443.67, -152066.11, -134061.33, 0.000, 0.000, 0.000, 22:13:33.926, 1541906013926
46, -186643.44, -186717.08, -180021.77, -124919.63, -150488.84, -179400.39, -152462.89, -134402.58, 0.000, 0.000, 0.000, 22:13:33.926, 1541906013926
47, -186625.95, -186699.58, -179931.77, -125059.26, -150513.89, -179400.39, -152562.75, -134445.61, 0.040, 0.218, 0.954, 22:13:33.926, 1541906013926
48, -186603.86, -186677.53, -179870.16, -125141.87, -150480.67, -179321.47, -152612.81, -134441.73, 0.000, 0.000, 0.000, 22:13:33.926, 1541906013926
49, -186605.30, -186679.02, -179898.81, -125489.02, -150713.84, -179407.59, -152928.78, -134706.19, 0.000, 0.000, 0.000, 22:13:33.926, 1541906013926
50, -186611.95, -186685.66, -179934.42, -125920.47, -151028.19, -179399.36, -153320.44, -135045.13, 0.000, 0.000, 0.000, 22:13:33.926, 1541906013926
51, -186602.44, -186676.05, -179913.19, -126170.92, -151163.75, -179397.94, -153529.20, -135197.16, 0.000, 0.000, 0.000, 22:13:33.927, 1541906013927
52, -186584.05, -186657.63, -179874.00, -126267.03, -151142.88, -179349.92, -153589.22, -135203.50, 0.000, 0.000, 0.000, 22:13:33.927, 1541906013927
53, -186580.78, -186654.41, -179881.33, -126557.95, -151319.31, -179383.42, -153847.25, -135411.52, 0.000, 0.000, 0.000, 22:13:33.927, 1541906013927
54, -186586.56, -186660.16, -179909.67, -126989.53, -151633.52, -179365.39, -154238.77, -135749.45, 0.000, 0.000, 0.000, 22:13:33.927, 1541906013927
55, -186578.56, -186652.19, -179894.13, -127264.01, -151794.67, -179352.67, -154471.83, -135925.25, 0.000, 0.000, 0.000, 22:13:33.927, 1541906013927
56, -186556.50, -186630.11, -179819.59, -127325.48, -151738.34, -179294.42, -154496.38, -135893.86, 0.000, 0.000, 0.000, 22:13:33.927, 1541906013927
57, -186546.83, -186620.39, -179829.61, -127547.09, -151844.41, -179281.59, -154685.83, -136030.75, 0.046, 0.222, 0.956, 22:13:33.927, 1541906013927
58, -186549.19, -186622.86, -179826.02, -127931.63, -152107.66, -179404.50, -155031.78, -136324.20, 0.000, 0.000, 0.000, 22:13:33.927, 1541906013927
59, -186545.03, -186618.66, -179827.98, -128227.46, -152283.02, -179425.22, -155285.14, -136524.88, 0.000, 0.000, 0.000, 22:13:33.928, 1541906013928
60, -186524.98, -186598.70, -179778.47, -128313.00, -152252.30, -179291.63, -155335.70, -136519.94, 0.000, 0.000, 0.000, 22:13:33.929, 1541906013929
61, -186512.42, -186585.97, -179776.95, -128501.83, -152327.77, -179242.56, -155494.70, -136624.09, 0.000, 0.000, 0.000, 22:13:33.929, 1541906013929
62, -186513.66, -186587.19, -179778.97, -128863.26, -152573.34, -179347.73, -155824.20, -136899.53, 0.000, 0.000, 0.000, 22:13:33.929, 1541906013929
63, -186510.17, -186583.70, -179782.03, -129202.60, -152792.88, -179368.14, -156123.38, -137145.06, 0.000, 0.000, 0.000, 22:13:33.930, 1541906013930
64, -186489.67, -186563.34, -179724.81, -129291.45, -152765.31, -179252.47, -156173.67, -137142.19, 0.000, 0.000, 0.000, 22:13:33.930, 1541906013930
65, -186481.06, -186554.73, -179736.72, -129505.02, -152866.84, -179223.02, -156356.58, -137273.55, 0.000, 0.000, 0.000, 22:13:33.930, 1541906013930
66, -186493.41, -186567.17, -179846.53, -129995.57, -153245.66, -179265.80, -156812.09, -137678.98, 0.000, 0.000, 0.000, 22:13:33.930, 1541906013930
67, -186484.94, -186558.63, -179787.45, -130244.91, -153378.48, -179211.86, -157017.06, -137830.94, 0.000, 0.000, 0.000, 22:13:33.930, 1541906013930
68, -186445.23, -186518.89, -179517.63, -130117.95, -153130.61, -178975.23, -156849.78, -137607.45, 0.050, 0.226, 0.960, 22:13:33.932, 1541906013932
69, -186438.31, -186511.98, -179579.97, -130362.14, -153262.83, -178987.73, -157063.25, -137768.30, 0.000, 0.000, 0.000, 22:13:33.932, 1541906013932
70, -186454.92, -186528.63, -179761.44, -130889.28, -153677.77, -179265.36, -157558.84, -138213.23, 0.000, 0.000, 0.000, 22:13:33.932, 1541906013932
71, -186449.47, -186523.05, -179735.98, -131202.39, -153867.61, -179319.28, -157828.17, -138431.44, 0.000, 0.000, 0.000, 22:13:33.932, 1541906013932
72, -186413.20, -186486.77, -179475.69, -131094.27, -153635.17, -178974.19, -157675.64, -138223.70, 0.000, 0.000, 0.000, 22:13:33.932, 1541906013932
73, -186395.58, -186469.17, -179434.13, -131215.73, -153640.67, -178858.94, -157765.67, -138259.61, 0.000, 0.000, 0.000, 22:13:33.932, 1541906013932
74, -186409.09, -186482.66, -179646.64, -131699.48, -154014.41, -179101.64, -158223.56, -138665.39, 0.000, 0.000, 0.000, 22:13:33.932, 1541906013932
75, -186413.59, -186487.13, -179688.06, -132111.33, -154308.33, -179264.77, -158598.97, -138987.56, 0.000, 0.000, 0.000, 22:13:33.932, 1541906013932
76, -186387.09, -186460.61, -179557.84, -132151.53, -154228.22, -179062.25, -158598.11, -138931.98, 0.000, 0.000, 0.000, 22:13:33.933, 1541906013933
77, -186363.30, -186436.81, -179429.63, -132174.08, -154136.78, -178848.77, -158587.08, -138867.45, 0.000, 0.000, 0.000, 22:13:33.933, 1541906013933
78, -186368.17, -186441.70, -179591.95, -132575.48, -154428.89, -179010.17, -158959.88, -139190.61, 0.042, 0.224, 0.964, 22:13:33.933, 1541906013933
79, -186378.55, -186452.05, -179673.53, -133041.83, -154778.20, -179226.89, -159389.59, -139570.45, 0.000, 0.000, 0.000, 22:13:33.933, 1541906013933
80, -186360.81, -186434.44, -179593.16, -133179.78, -154791.88, -179118.36, -159484.39, -139612.52, 0.000, 0.000, 0.000, 22:13:33.936, 1541906013936
81, -186333.05, -186406.66, -179439.48, -133165.83, -154659.77, -178868.75, -159433.92, -139509.19, 0.000, 0.000, 0.000, 22:13:33.937, 1541906013937
82, -186334.33, -186407.86, -179562.38, -133509.17, -154892.58, -178971.50, -159745.78, -139770.86, 0.000, 0.000, 0.000, 22:13:33.937, 1541906013937
83, -186343.45, -186417.08, -179658.83, -133990.41, -155258.36, -179190.39, -160191.80, -140164.44, 0.000, 0.000, 0.000, 22:13:33.937, 1541906013937
84, -186335.69, -186409.30, -179625.30, -134242.45, -155386.95, -179171.58, -160399.22, -140318.41, 0.000, 0.000, 0.000, 22:13:33.937, 1541906013937
85, -186307.80, -186381.41, -179485.95, -134236.89, -155261.41, -178946.77, -160356.22, -140219.59, 0.000, 0.000, 0.000, 22:13:33.937, 1541906013937
86, -186300.48, -186374.11, -179524.98, -134464.31, -155378.28, -178937.75, -160555.38, -140364.45, 0.000, 0.000, 0.000, 22:13:33.937, 1541906013937
87, -186308.94, -186382.52, -179612.88, -134911.81, -155712.02, -179128.75, -160971.30, -140728.95, 0.000, 0.000, 0.000, 22:13:33.937, 1541906013937
88, -186306.41, -186379.98, -179610.92, -135241.03, -155920.48, -179157.66, -161260.41, -140962.17, 0.042, 0.220, 0.962, 22:13:33.937, 1541906013937
89, -186279.36, -186352.98, -179490.92, -135264.28, -155824.42, -178974.48, -161244.98, -140890.66, 0.000, 0.000, 0.000, 22:13:33.937, 1541906013937
90, -186267.67, -186341.28, -179488.77, -135434.44, -155881.64, -178915.05, -161384.34, -140978.81, 0.000, 0.000, 0.000, 22:13:33.939, 1541906013939
91, -186277.02, -186350.59, -179588.28, -135876.23, -156211.02, -179076.61, -161793.98, -141338.70, 0.000, 0.000, 0.000, 22:13:33.940, 1541906013940
92, -186280.34, -186353.94, -179613.66, -136264.70, -156484.52, -179067.86, -162140.64, -141633.30, 0.000, 0.000, 0.000, 22:13:33.941, 1541906013941
93, -186259.42, -186333.09, -179508.66, -136335.69, -156438.09, -178985.08, -162169.61, -141606.28, 0.000, 0.000, 0.000, 22:13:33.942, 1541906013942
94, -186240.89, -186314.45, -179466.31, -136447.50, -156437.42, -178887.20, -162250.84, -141634.97, 0.000, 0.000, 0.000, 22:13:33.942, 1541906013942
95, -186246.98, -186320.61, -179533.59, -136833.47, -156712.67, -179025.31, -162608.98, -141941.02, 0.000, 0.000, 0.000, 22:13:33.943, 1541906013943
96, -186252.47, -186326.11, -179569.53, -137251.94, -157011.72, -179074.22, -162988.83, -142267.19, 0.000, 0.000, 0.000, 22:13:33.943, 1541906013943
97, -186235.67, -186309.25, -179514.39, -137410.05, -157050.59, -179025.89, -163105.17, -142329.02, 0.000, 0.000, 0.000, 22:13:33.943, 1541906013943
98, -186215.58, -186289.13, -179451.41, -137484.77, -157008.28, -178900.66, -163144.91, -142315.75, 0.042, 0.218, 0.966, 22:13:33.944, 1541906013944
99, -186214.59, -186288.13, -179493.63, -137806.59, -157217.11, -178979.63, -163434.81, -142554.39, 0.000, 0.000, 0.000, 22:13:33.944, 1541906013944
100, -186219.17, -186292.70, -179520.73, -138229.20, -157520.89, -179057.16, -163818.59, -142886.69, 0.000, 0.000, 0.000, 22:13:33.945, 1541906013945
101, -186210.20, -186283.86, -179505.78, -138471.25, -157645.58, -179011.41, -164018.41, -143033.75, 0.000, 0.000, 0.000, 22:13:33.946, 1541906013946
102, -186188.86, -186262.42, -179439.27, -138534.70, -157594.64, -178914.17, -164047.67, -143009.39, 0.000, 0.000, 0.000, 22:13:33.946, 1541906013946
103, -186184.73, -186258.36, -179455.94, -138787.61, -157735.97, -178931.94, -164269.56, -143181.33, 0.000, 0.000, 0.000, 22:13:33.946, 1541906013946
104, -186189.28, -186262.98, -179471.45, -139196.31, -158025.91, -179025.95, -164640.13, -143500.88, 0.000, 0.000, 0.000, 22:13:33.946, 1541906013946
105, -186182.67, -186256.28, -179477.30, -139474.55, -158187.16, -178989.77, -164877.69, -143683.31, 0.000, 0.000, 0.000, 22:13:33.946, 1541906013946
106, -186159.88, -186233.47, -179413.56, -139539.34, -158137.94, -178899.16, -164908.19, -143660.22, 0.000, 0.000, 0.000, 22:13:33.946, 1541906013946
107, -186154.58, -186228.20, -179443.39, -139791.78, -158279.97, -178915.56, -165131.69, -143832.16, 0.000, 0.000, 0.000, 22:13:33.946, 1541906013946
108, -186165.23, -186238.80, -179494.47, -140232.63, -158606.52, -178951.41, -165537.28, -144183.83, 0.040, 0.222, 0.954, 22:13:33.947, 1541906013947
109, -186166.88, -186240.42, -179512.67, -140590.55, -158850.95, -178928.19, -165854.09, -144443.72, 0.000, 0.000, 0.000, 22:13:33.947, 1541906013947
110, -186146.91, -186220.45, -179441.98, -140681.39, -158826.44, -178924.88, -165907.52, -144440.31, 0.000, 0.000, 0.000, 22:13:33.947, 1541906013947
111, -186137.98, -186211.53, -179438.39, -140892.20, -158925.53, -178911.05, -166086.80, -144568.02, 0.000, 0.000, 0.000, 22:13:33.947, 1541906013947
112, -186149.52, -186222.97, -179506.88, -141352.47, -159271.19, -178934.69, -166511.27, -144940.23, 0.000, 0.000, 0.000, 22:13:33.947, 1541906013947
113, -186148.03, -186221.52, -179520.42, -141703.22, -159510.11, -178909.09, -166819.47, -145195.39, 0.000, 0.000, 0.000, 22:13:33.947, 1541906013947
114, -186119.66, -186193.41, -179371.31, -141715.59, -159406.98, -178835.88, -166790.97, -145112.59, 0.000, 0.000, 0.000, 22:13:33.947, 1541906013947
115, -186105.11, -186178.78, -179355.22, -141866.16, -159445.38, -178782.08, -166910.28, -145180.61, 0.000, 0.000, 0.000, 22:13:33.947, 1541906013947
116, -186115.58, -186189.06, -179445.44, -142307.20, -159773.95, -178920.28, -167320.77, -145538.64, 0.000, 0.000, 0.000, 22:13:33.947, 1541906013947
117, -186117.97, -186191.41, -179469.09, -142689.64, -160041.95, -178879.58, -167663.61, -145827.67, 0.000, 0.000, 0.000, 22:13:33.948, 1541906013948
118, -186091.47, -186165.02, -179313.59, -142710.97, -159948.23, -178775.53, -167645.05, -145754.53, 0.042, 0.246, 0.958, 22:13:33.948, 1541906013948
119, -186071.05, -186144.61, -179223.34, -142763.22, -159889.02, -178628.09, -167666.83, -145723.69, 0.000, 0.000, 0.000, 22:13:33.948, 1541906013948
120, -186076.08, -186149.72, -179331.92, -143133.81, -160152.84, -178764.84, -168012.61, -146017.73, 0.000, 0.000, 0.000, 22:13:34.400, 1541906014400
121, -186080.09, -186153.84, -179366.75, -143548.36, -160451.45, -178935.52, -168392.88, -146344.33, 0.000, 0.000, 0.000, 22:13:34.401, 1541906014401
122, -186061.25, -186134.97, -179289.80, -143668.45, -160450.72, -178814.16, -168472.56, -146369.30, 0.000, 0.000, 0.000, 22:13:34.401, 1541906014401
123, -186036.47, -186109.98, -179152.22, -143666.48, -160334.22, -178578.45, -168437.23, -146278.59, 0.000, 0.000, 0.000, 22:13:34.401, 1541906014401
124, -186034.91, -186108.34, -179244.42, -143964.25, -160524.13, -178641.19, -168707.98, -146497.33, 0.000, 0.000, 0.000, 22:13:34.401, 1541906014401
125, -186043.58, -186117.06, -179307.47, -144397.89, -160844.88, -178831.56, -169108.98, -146845.22, 0.000, 0.000, 0.000, 22:13:34.401, 1541906014401
126, -186029.97, -186103.55, -179262.69, -144589.61, -160917.09, -178781.05, -169260.77, -146942.08, 0.000, 0.000, 0.000, 22:13:34.401, 1541906014401
127, -185998.47, -186072.05, -179091.42, -144548.80, -160760.67, -178508.42, -169184.59, -146812.11, 0.000, 0.000, 0.000, 22:13:34.401, 1541906014401
128, -185993.53, -186067.14, -179165.63, -144806.38, -160908.89, -178530.91, -169413.45, -146989.33, 0.046, 0.242, 0.962, 22:13:34.402, 1541906014402
129, -186006.00, -186079.55, -179285.44, -145270.63, -161260.91, -178753.95, -169847.77, -147372.25, 0.000, 0.000, 0.000, 22:13:34.402, 1541906014402
130, -186002.81, -186076.25, -179279.41, -145564.75, -161433.97, -178804.20, -170104.19, -147572.63, 0.000, 0.000, 0.000, 22:13:34.402, 1541906014402
131, -185974.16, -186047.67, -179121.80, -145536.77, -161287.75, -178543.25, -170040.59, -147453.78, 0.000, 0.000, 0.000, 22:13:34.402, 1541906014402
132, -185961.50, -186034.97, -179130.41, -145712.06, -161352.44, -178487.81, -170187.58, -147549.88, 0.000, 0.000, 0.000, 22:13:34.402, 1541906014402
133, -185971.98, -186045.44, -179255.00, -146153.42, -161683.28, -178690.77, -170600.16, -147912.39, 0.000, 0.000, 0.000, 22:13:34.402, 1541906014402
134, -185976.92, -186050.34, -179296.86, -146555.98, -161966.02, -178839.52, -170964.44, -148223.33, 0.000, 0.000, 0.000, 22:13:34.402, 1541906014402
135, -185952.78, -186026.23, -179195.97, -146616.28, -161906.52, -178664.73, -170985.27, -148189.98, 0.000, 0.000, 0.000, 22:13:34.402, 1541906014402
136, -185937.56, -186011.13, -179155.95, -146739.83, -161918.80, -178557.28, -171075.33, -148230.69, 0.000, 0.000, 0.000, 22:13:34.403, 1541906014403
137, -185945.63, -186019.19, -179245.94, -147170.88, -162237.98, -178722.48, -171473.17, -148578.83, 0.000, 0.000, 0.000, 22:13:34.403, 1541906014403
138, -185955.23, -186028.80, -179326.97, -147624.92, -162577.36, -178747.25, -171888.23, -148940.42, 0.000, 0.000, 0.000, 22:13:34.403, 1541906014403
139, -185937.73, -186011.25, -179243.02, -147753.45, -162590.58, -178701.44, -171975.59, -148973.52, 0.048, 0.250, 0.964, 22:13:34.403, 1541906014403
140, -185918.31, -185991.78, -179187.09, -147839.11, -162562.67, -178608.11, -172029.34, -148975.95, 0.000, 0.000, 0.000, 22:13:34.403, 1541906014403
141, -185922.83, -185996.34, -179234.36, -148211.86, -162823.64, -178706.91, -172372.89, -149268.61, 0.000, 0.000, 0.000, 22:13:34.403, 1541906014403
142, -185933.30, -186006.94, -179324.27, -148683.64, -163182.73, -178706.53, -172808.53, -149648.80, 0.000, 0.000, 0.000, 22:13:34.403, 1541906014403
143, -185925.53, -185999.08, -179270.58, -148908.36, -163295.38, -178722.44, -172992.64, -149776.84, 0.000, 0.000, 0.000, 22:13:34.403, 1541906014403
144, -185904.23, -185977.81, -179204.84, -148979.52, -163251.41, -178657.73, -173027.23, -149759.30, 0.000, 0.000, 0.000, 22:13:34.403, 1541906014403
145, -185904.03, -185977.73, -179207.61, -149295.56, -163456.30, -178712.92, -173313.19, -149993.13, 0.000, 0.000, 0.000, 22:13:34.403, 1541906014403
146, -185913.41, -185987.03, -179279.20, -149751.30, -163798.73, -178699.70, -173732.59, -150357.92, 0.000, 0.000, 0.000, 22:13:34.403, 1541906014403
147, -185908.45, -185982.02, -179260.41, -150034.50, -163970.52, -178699.70, -173975.00, -150543.73, 0.000, 0.000, 0.000, 22:13:34.404, 1541906014404
148, -185889.48, -185963.11, -179199.20, -150119.83, -163939.83, -178683.06, -174022.09, -150535.22, 0.000, 0.000, 0.000, 22:13:34.404, 1541906014404
149, -185885.75, -185959.41, -179181.08, -150403.66, -164111.33, -178705.39, -174275.22, -150733.47, 0.044, 0.238, 0.956, 22:13:34.404, 1541906014404
150, -185894.36, -185967.98, -179241.03, -150846.59, -164441.80, -178666.73, -174681.84, -151086.14, 0.000, 0.000, 0.000, 22:13:34.404, 1541906014404
151, -185892.41, -185966.08, -179245.25, -151165.27, -164653.88, -178678.03, -174962.05, -151311.97, 0.000, 0.000, 0.000, 22:13:34.404, 1541906014404
152, -185873.50, -185947.06, -179187.98, -151260.89, -164637.27, -178689.16, -175022.94, -151316.88, 0.000, 0.000, 0.000, 22:13:34.404, 1541906014404
153, -185871.72, -185945.19, -179177.81, -151521.44, -164787.09, -178689.78, -175256.42, -151496.36, 0.000, 0.000, 0.000, 22:13:34.404, 1541906014404
154, -185882.73, -185956.25, -179237.81, -151968.98, -165123.44, -178644.30, -175670.41, -151854.66, 0.000, 0.000, 0.000, 22:13:34.404, 1541906014404
155, -185878.52, -185952.05, -179233.47, -152279.88, -165325.70, -178659.86, -175943.14, -152069.17, 0.000, 0.000, 0.000, 22:13:34.405, 1541906014405
156, -185857.14, -185930.59, -179144.13, -152336.98, -165268.72, -178631.92, -175964.23, -152033.66, 0.000, 0.000, 0.000, 22:13:34.405, 1541906014405
157, -185850.41, -185924.02, -179149.50, -152563.72, -165384.39, -178636.19, -176161.78, -152178.98, 0.000, 0.000, 0.000, 22:13:34.405, 1541906014405
158, -185858.25, -185931.95, -179192.30, -152992.55, -165703.47, -178643.72, -176558.25, -152522.69, 0.000, 0.000, 0.000, 22:13:34.405, 1541906014405
159, -185858.58, -185932.13, -179203.47, -153324.16, -165929.73, -178623.64, -176853.75, -152763.23, 0.042, 0.232, 0.956, 22:13:34.405, 1541906014405
160, -185836.63, -185910.22, -179111.47, -153380.75, -165875.23, -178592.53, -176875.41, -152729.22, 0.000, 0.000, 0.000, 22:13:34.405, 1541906014405
161, -185825.78, -185899.36, -179107.55, -153562.06, -165946.86, -178564.03, -177030.66, -152830.31, 0.000, 0.000, 0.000, 22:13:34.405, 1541906014405
162, -185832.55, -185906.09, -179137.14, -153964.13, -166236.98, -178650.11, -177401.59, -153148.02, 0.000, 0.000, 0.000, 22:13:34.406, 1541906014406
163, -185827.97, -185901.38, -179136.80, -154288.55, -166447.05, -178607.64, -177684.50, -153377.64, 0.000, 0.000, 0.000, 22:13:34.406, 1541906014406
164, -185802.83, -185876.36, -179010.06, -154305.75, -166351.22, -178499.97, -177664.28, -153300.34, 0.000, 0.000, 0.000, 22:13:34.406, 1541906014406
165, -185791.05, -185864.61, -178995.53, -154454.08, -166389.59, -178428.84, -177784.00, -153364.97, 0.000, 0.000, 0.000, 22:13:34.406, 1541906014406
166, -185798.78, -185872.41, -179086.55, -154872.70, -166696.75, -178607.47, -178174.84, -153701.92, 0.000, 0.000, 0.000, 22:13:34.407, 1541906014407
167, -185801.16, -185874.69, -179087.98, -155219.36, -166923.17, -178692.67, -178483.08, -153955.44, 0.000, 0.000, 0.000, 22:13:34.407, 1541906014407
168, -185774.44, -185848.06, -178937.36, -155215.94, -166802.59, -178460.92, -178443.00, -153858.11, 0.000, 0.000, 0.000, 22:13:34.407, 1541906014407
169, -185755.06, -185828.69, -178866.31, -155292.88, -166768.28, -178310.23, -178488.17, -153851.91, 0.042, 0.224, 0.962, 22:13:34.407, 1541906014407
170, -185758.91, -185832.53, -178999.36, -155675.69, -167041.42, -178457.59, -178737.94, -154157.83, 0.000, 0.000, 0.000, 22:13:34.407, 1541906014407
171, -185762.59, -185836.17, -179022.52, -156055.16, -167306.41, -178594.09, -178807.09, -154463.95, 0.000, 0.000, 0.000, 22:13:34.407, 1541906014407
172, -185738.14, -185811.75, -178899.42, -156087.09, -167223.25, -178391.97, -178686.81, -154415.61, 0.000, 0.000, 0.000, 22:13:34.407, 1541906014407
