%OpenBCI Raw EEG Data
%Number of channels = 8
%Sample Rate = 250.0 Hz
%First Column = SampleIndex
%Last Column = Timestamp 
%Other Columns = EEG data in microvolts followed by Accel Data (in G) interleaved with Aux Data
0, 0.00, 0.00, 0.00, 0.00, 0.00, 0.00, 0.00, 0.00, 0.070, 0.884, 0.488, 22:41:52.704, 1541907712704
1, -10027.82, 13066.18, 187500.00, 187500.00, -187500.02, -187500.02, -187500.02, -187500.02, 0.000, 0.000, 0.000, 22:41:53.185, 1541907713185
2, -9736.11, 13550.39, 187500.00, 187500.00, -187500.02, -187500.02, -187500.02, -187500.02, 0.000, 0.000, 0.000, 22:41:53.185, 1541907713185
3, -9919.97, 13635.23, 187500.00, 187500.00, -187500.02, -187500.02, -187500.02, -187500.02, 0.000, 0.000, 0.000, 22:41:53.185, 1541907713185
4, -10121.45, 13350.79, 187500.00, 187500.00, -187500.02, -187500.02, -187500.02, -187500.02, 0.000, 0.000, 0.000, 22:41:53.185, 1541907713185
5, -10056.25, 13093.32, 187500.00, 187500.00, -187500.02, -187500.02, -187500.02, -187500.02, 0.000, 0.000, 0.000, 22:41:53.185, 1541907713185
6, -9749.23, 13488.41, 187500.00, 187500.00, -187500.02, -187500.02, -187500.02, -187500.02, 0.000, 0.000, 0.000, 22:41:53.185, 1541907713185
7, -9886.33, 13666.82, 187500.00, 187500.00, -187500.02, -187500.02, -187500.02, -187500.02, 0.056, 0.856, 0.522, 22:41:53.186, 1541907713186
8, -10110.23, 13376.02, 187500.00, 187500.00, -187500.02, -187500.02, -187500.02, -187500.02, 0.000, 0.000, 0.000, 22:41:53.186, 1541907713186
9, -10100.35, 13070.09, 187500.00, 187500.00, -187500.02, -187500.02, -187500.02, -187500.02, 0.000, 0.000, 0.000, 22:41:53.186, 1541907713186
10, -9805.87, 13373.76, 187500.00, 187500.00, -187500.02, -187500.02, -187500.02, -187500.02, 0.000, 0.000, 0.000, 22:41:53.186, 1541907713186
11, -9850.46, 13666.93, 187500.00, 187500.00, -187500.02, -187500.02, -187500.02, -187500.02, 0.000, 0.000, 0.000, 22:41:53.186, 1541907713186
12, -10057.86, 13466.99, 187500.00, 187500.00, -187500.02, -187500.02, -187500.02, -187500.02, 0.000, 0.000, 0.000, 22:41:53.186, 1541907713186
13, -10125.18, 13147.92, 187500.00, 187500.00, -187500.02, -187500.02, -187500.02, -187500.02, 0.000, 0.000, 0.000, 22:41:53.186, 1541907713186
14, -9869.26, 13298.64, 187500.00, 187500.00, -187500.02, -187500.02, -187500.02, -187500.02, 0.000, 0.000, 0.000, 22:41:53.186, 1541907713186
15, -9805.11, 13672.18, 187500.00, 187500.00, -187500.02, -187500.02, -187500.02, -187500.02, 0.000, 0.000, 0.000, 22:41:53.186, 1541907713186
16, -10011.88, 13506.67, 187500.00, 187500.00, -187500.02, -187500.02, -187500.02, -187500.02, 0.000, 0.000, 0.000, 22:41:53.186, 1541907713186
17, -10131.75, 13185.20, 187500.00, 187500.00, -187500.02, -187500.02, -187500.02, -187500.02, 0.050, 0.816, 0.546, 22:41:53.186, 1541907713186
18, -9953.05, 13214.04, 187500.00, 187500.00, -187500.02, -187500.02, -187500.02, -187500.02, 0.000, 0.000, 0.000, 22:41:53.186, 1541907713186
19, -9797.46, 13673.05, 187500.00, 187500.00, -187500.02, -187500.02, -187500.02, -187500.02, 0.000, 0.000, 0.000, 22:41:53.187, 1541907713187
20, -10022.32, 13570.41, 187500.00, 187500.00, -187500.02, -187500.02, -187500.02, -187500.02, 0.000, 0.000, 0.000, 22:41:53.187, 1541907713187
21, -10145.12, 13264.82, 187500.00, 187500.00, -187500.02, -187500.02, -187500.02, -187500.02, 0.000, 0.000, 0.000, 22:41:53.196, 1541907713196
22, -9968.74, 13182.41, 187500.00, 187500.00, -187500.02, -187500.02, -187500.02, -187500.02, 0.000, 0.000, 0.000, 22:41:53.197, 1541907713197
23, -9752.38, 13647.04, 187500.00, 187500.00, -187500.02, -187500.02, -187500.02, -187500.02, 0.000, 0.000, 0.000, 22:41:53.198, 1541907713198
24, -9964.90, 13633.83, 187500.00, 187500.00, -187500.02, -187500.02, -187500.02, -187500.02, 0.000, 0.000, 0.000, 22:41:53.199, 1541907713199
25, -10167.34, 13310.78, 187500.00, 187500.00, -187500.02, -187500.02, -187500.02, -187500.02, 0.000, 0.000, 0.000, 22:41:53.199, 1541907713199
26, -10066.08, 13085.72, 187500.00, 187500.00, -187500.02, -187500.02, -187500.02, -187500.02, 0.000, 0.000, 0.000, 22:41:53.201, 1541907713201
27, -9841.14, 13505.77, 187500.00, 187500.00, -187500.02, -187500.02, -187500.02, -187500.02, 0.028, 0.802, 0.570, 22:41:53.203, 1541907713203
28, -10025.56, 13585.52, 187500.00, 187500.00, -187500.02, -187500.02, -187500.02, -187500.02, 0.000, 0.000, 0.000, 22:41:53.203, 1541907713203
29, -10233.17, 13274.16, 187500.00, 187500.00, -187500.02, -187500.02, -187500.02, -187500.02, 0.000, 0.000, 0.000, 22:41:53.204, 1541907713204
30, -10197.29, 13032.36, 187500.00, 187500.00, -187500.02, -187500.02, -187500.02, -187500.02, 0.000, 0.000, 0.000, 22:41:53.204, 1541907713204
31, -9977.73, 13308.23, 187500.00, 187500.00, -187500.02, -187500.02, -187500.02, -187500.02, 0.000, 0.000, 0.000, 22:41:53.205, 1541907713205
32, -10086.36, 13471.02, 187500.00, 187500.00, -187500.02, -187500.02, -187500.02, -187500.02, 0.000, 0.000, 0.000, 22:41:53.205, 1541907713205
33, -10274.27, 13234.87, 187500.00, 187500.00, -187500.02, -187500.02, -187500.02, -187500.02, 0.000, 0.000, 0.000, 22:41:53.206, 1541907713206
34, -10342.84, 12966.56, 187500.00, 187500.00, -187500.02, -187500.02, -187500.02, -187500.02, 0.000, 0.000, 0.000, 22:41:53.206, 1541907713206
35, -10074.87, 13196.00, 187500.00, 187500.00, -187500.02, -187500.02, -187500.02, -187500.02, 0.000, 0.000, 0.000, 22:41:53.206, 1541907713206
36, -10074.65, 13478.44, 187500.00, 187500.00, -187500.02, -187500.02, -187500.02, -187500.02, 0.000, 0.000, 0.000, 22:41:53.206, 1541907713206
37, -10246.35, 13335.39, 187500.00, 187500.00, -187500.02, -187500.02, -187500.02, -187500.02, 0.042, 0.782, 0.578, 22:41:53.206, 1541907713206
38, -10330.24, 13051.43, 187500.00, 187500.00, -187500.02, -187500.02, -187500.02, -187500.02, 0.000, 0.000, 0.000, 22:41:53.206, 1541907713206
39, -10094.87, 13152.75, 187500.00, 187500.00, -187500.02, -187500.02, -187500.02, -187500.02, 0.000, 0.000, 0.000, 22:41:53.206, 1541907713206
40, -9999.88, 13510.20, 187500.00, 187500.00, -187500.02, -187500.02, -187500.02, -187500.02, 0.000, 0.000, 0.000, 22:41:53.208, 1541907713208
41, -10199.03, 13391.42, 187500.00, 187500.00, -187500.02, -187500.02, -187500.02, -187500.02, 0.000, 0.000, 0.000, 22:41:53.208, 1541907713208
42, -10293.11, 13117.93, 187500.00, 187500.00, -187500.02, -187500.02, -187500.02, -187500.02, 0.000, 0.000, 0.000, 22:41:53.209, 1541907713209
43, -10083.74, 13129.95, 187500.00, 187500.00, -187500.02, -187500.02, -187500.02, -187500.02, 0.000, 0.000, 0.000, 22:41:53.209, 1541907713209
44, -9946.35, 13537.29, 187500.00, 187500.00, -187500.02, -187500.02, -187500.02, -187500.02, 0.000, 0.000, 0.000, 22:41:53.210, 1541907713210
45, -10161.01, 13448.24, 187500.00, 187500.00, -187500.02, -187500.02, -187500.02, -187500.02, 0.000, 0.000, 0.000, 22:41:53.210, 1541907713210
46, -10290.56, 13179.10, 187500.00, 187500.00, -187500.02, -187500.02, -187500.02, -187500.02, 0.000, 0.000, 0.000, 22:41:53.211, 1541907713211
47, -10200.35, 13031.71, 187500.00, 187500.00, -187500.02, -187500.02, -187500.02, -187500.02, 0.036, 0.784, 0.584, 22:41:53.211, 1541907713211
48, -9960.61, 13428.37, 187500.00, 187500.00, -187500.02, -187500.02, -187500.02, -187500.02, 0.000, 0.000, 0.000, 22:41:53.211, 1541907713211
49, -10108.80, 13461.20, 187500.00, 187500.00, -187500.02, -187500.02, -187500.02, -187500.02, 0.000, 0.000, 0.000, 22:41:53.211, 1541907713211
50, -10295.86, 13170.54, 187500.00, 187500.00, -187500.02, -187500.02, -187500.02, -187500.02, 0.000, 0.000, 0.000, 22:41:53.211, 1541907713211
51, -10223.33, 12975.50, 187500.00, 187500.00, -187500.02, -187500.02, -187500.02, -187500.02, 0.000, 0.000, 0.000, 22:41:53.211, 1541907713211
52, -9944.72, 13360.00, 187500.00, 187500.00, -187500.02, -187500.02, -187500.02, -187500.02, 0.000, 0.000, 0.000, 22:41:53.211, 1541907713211
53, -10061.32, 13489.03, 187500.00, 187500.00, -187500.02, -187500.02, -187500.02, -187500.02, 0.000, 0.000, 0.000, 22:41:53.211, 1541907713211
54, -10243.60, 13233.53, 187500.00, 187500.00, -187500.02, -187500.02, -187500.02, -187500.02, 0.000, 0.000, 0.000, 22:41:53.211, 1541907713211
55, -10229.03, 12962.40, 187500.00, 187500.00, -187500.02, -187500.02, -187500.02, -187500.02, 0.000, 0.000, 0.000, 22:41:53.212, 1541907713212
56, -9944.38, 13285.52, 187500.00, 187500.00, -187500.02, -187500.02, -187500.02, -187500.02, 0.030, 0.770, 0.576, 22:41:53.212, 1541907713212
57, -10002.23, 13561.83, 187500.00, 187500.00, -187500.02, -187500.02, -187500.02, -187500.02, 0.000, 0.000, 0.000, 22:41:53.212, 1541907713212
58, -10213.83, 13343.97, 187500.00, 187500.00, -187500.02, -187500.02, -187500.02, -187500.02, 0.000, 0.000, 0.000, 22:41:53.212, 1541907713212
59, -10275.88, 13029.01, 187500.00, 187500.00, -187500.02, -187500.02, -187500.02, -187500.02, 0.000, 0.000, 0.000, 22:41:53.212, 1541907713212
60, -9974.73, 13247.63, 187500.00, 187500.00, -187500.02, -187500.02, -187500.02, -187500.02, 0.000, 0.000, 0.000, 22:41:53.212, 1541907713212
61, -9967.13, 13596.05, 187500.00, 187500.00, -187500.02, -187500.02, -187500.02, -187500.02, 0.000, 0.000, 0.000, 22:41:53.212, 1541907713212
62, -10186.11, 13398.28, 187500.00, 187500.00, -187500.02, -187500.02, -187500.02, -187500.02, 0.000, 0.000, 0.000, 22:41:53.212, 1541907713212
63, -10284.22, 13038.93, 187500.00, 187500.00, -187500.02, -187500.02, -187500.02, -187500.02, 0.000, 0.000, 0.000, 22:41:53.212, 1541907713212
64, -10056.14, 13114.71, 187500.00, 187500.00, -187500.02, -187500.02, -187500.02, -187500.02, 0.000, 0.000, 0.000, 22:41:53.212, 1541907713212
65, -9957.08, 13517.89, 187500.00, 187500.00, -187500.02, -187500.02, -187500.02, -187500.02, 0.000, 0.000, 0.000, 22:41:53.212, 1541907713212
66, -10146.33, 13376.92, 187500.00, 187500.00, -187500.02, -187500.02, -187500.02, -187500.02, 0.040, 0.714, 0.570, 22:41:53.213, 1541907713213
67, -10273.00, 13068.13, 187500.00, 187500.00, -187500.02, -187500.02, -187500.02, -187500.02, 0.000, 0.000, 0.000, 22:41:53.213, 1541907713213
68, -10093.65, 13042.49, 187500.00, 187500.00, -187500.02, -187500.02, -187500.02, -187500.02, 0.000, 0.000, 0.000, 22:41:53.213, 1541907713213
69, -9920.02, 13506.58, 187500.00, 187500.00, -187500.02, -187500.02, -187500.02, -187500.02, 0.000, 0.000, 0.000, 22:41:53.213, 1541907713213
70, -10142.64, 13458.19, 187500.00, 187500.00, -187500.02, -187500.02, -187500.02, -187500.02, 0.000, 0.000, 0.000, 22:41:53.213, 1541907713213
71, -10272.01, 13128.48, 187500.00, 187500.00, -187500.02, -187500.02, -187500.02, -187500.02, 0.000, 0.000, 0.000, 22:41:53.213, 1541907713213
72, -10150.13, 12963.32, 187500.00, 187500.00, -187500.02, -187500.02, -187500.02, -187500.02, 0.000, 0.000, 0.000, 22:41:53.213, 1541907713213
73, -9889.31, 13395.36, 187500.00, 187500.00, -187500.02, -187500.02, -187500.02, -187500.02, 0.000, 0.000, 0.000, 22:41:53.213, 1541907713213
74, -10051.60, 13415.43, 187500.00, 187500.00, -187500.02, -187500.02, -187500.02, -187500.02, 0.000, 0.000, 0.000, 22:41:53.213, 1541907713213
75, -10253.13, 13120.50, 187500.00, 187500.00, -187500.02, -187500.02, -187500.02, -187500.02, 0.000, 0.000, 0.000, 22:41:53.213, 1541907713213
76, -10188.51, 12878.27, 187500.00, 187500.00, -187500.02, -187500.02, -187500.02, -187500.02, 0.042, 0.710, 0.578, 22:41:53.213, 1541907713213
77, -9868.83, 13289.07, 187500.00, 187500.00, -187500.02, -187500.02, -187500.02, -187500.02, 0.000, 0.000, 0.000, 22:41:53.213, 1541907713213
78, -9992.10, 13421.17, 187500.00, 187500.00, -187500.02, -187500.02, -187500.02, -187500.02, 0.000, 0.000, 0.000, 22:41:53.214, 1541907713214
79, -10214.41, 13140.25, 187500.00, 187500.00, -187500.02, -187500.02, -187500.02, -187500.02, 0.000, 0.000, 0.000, 22:41:53.214, 1541907713214
80, -10236.85, 12860.72, 187500.00, 187500.00, -187500.02, -187500.02, -187500.02, -187500.02, 0.000, 0.000, 0.000, 22:41:53.214, 1541907713214
81, -9921.25, 13188.87, 187500.00, 187500.00, -187500.02, -187500.02, -187500.02, -187500.02, 0.000, 0.000, 0.000, 22:41:53.214, 1541907713214
82, -9948.56, 13437.69, 187500.00, 187500.00, -187500.02, -187500.02, -187500.02, -187500.02, 0.000, 0.000, 0.000, 22:41:53.227, 1541907713227
83, -10185.62, 13201.01, 187500.00, 187500.00, -187500.02, -187500.02, -187500.02, -187500.02, 0.000, 0.000, 0.000, 22:41:53.227, 1541907713227
84, -10267.36, 12878.61, 187500.00, 187500.00, -187500.02, -187500.02, -187500.02, -187500.02, 0.000, 0.000, 0.000, 22:41:53.227, 1541907713227
85, -9987.65, 13071.03, 187500.00, 187500.00, -187500.02, -187500.02, -187500.02, -187500.02, 0.000, 0.000, 0.000, 22:41:53.227, 1541907713227
86, -9956.41, 13391.89, 187500.00, 187500.00, -187500.02, -187500.02, -187500.02, -187500.02, 0.058, 0.732, 0.602, 22:41:53.227, 1541907713227
87, -10185.49, 13190.03, 187500.00, 187500.00, -187500.02, -187500.02, -187500.02, -187500.02, 0.000, 0.000, 0.000, 22:41:53.227, 1541907713227
88, -10256.25, 12874.40, 187500.00, 187500.00, -187500.02, -187500.02, -187500.02, -187500.02, 0.000, 0.000, 0.000, 22:41:53.227, 1541907713227
89, -10007.43, 12938.87, 187500.00, 187500.00, -187500.02, -187500.02, -187500.02, -187500.02, 0.000, 0.000, 0.000, 22:41:53.227, 1541907713227
90, -9909.33, 13339.36, 187500.00, 187500.00, -187500.02, -187500.02, -187500.02, -187500.02, 0.000, 0.000, 0.000, 22:41:53.227, 1541907713227
91, -10135.64, 13199.98, 187500.00, 187500.00, -187500.02, -187500.02, -187500.02, -187500.02, 0.000, 0.000, 0.000, 22:41:53.228, 1541907713228
92, -10296.31, 12873.69, 187500.00, 187500.00, -187500.02, -187500.02, -187500.02, -187500.02, 0.000, 0.000, 0.000, 22:41:53.228, 1541907713228
93, -10130.30, 12829.10, 187500.00, 187500.00, -187500.02, -187500.02, -187500.02, -187500.02, 0.000, 0.000, 0.000, 22:41:53.228, 1541907713228
94, -9921.25, 13288.47, 187500.00, 187500.00, -187500.02, -187500.02, -187500.02, -187500.02, 0.000, 0.000, 0.000, 22:41:53.228, 1541907713228
95, -10112.04, 13260.02, 187500.00, 187500.00, -187500.02, -187500.02, -187500.02, -187500.02, 0.052, 0.718, 0.602, 22:41:53.228, 1541907713228
96, -10270.56, 12953.75, 187500.00, 187500.00, -187500.02, -187500.02, -187500.02, -187500.02, 0.000, 0.000, 0.000, 22:41:53.228, 1541907713228
97, -10154.67, 12798.07, 187500.00, 187500.00, -187500.02, -187500.02, -187500.02, -187500.02, 0.000, 0.000, 0.000, 22:41:53.228, 1541907713228
98, -9899.21, 13243.25, 187500.00, 187500.00, -187500.02, -187500.02, -187500.02, -187500.02, 0.000, 0.000, 0.000, 22:41:53.228, 1541907713228
99, -10080.21, 13306.62, 187500.00, 187500.00, -187500.02, -187500.02, -187500.02, -187500.02, 0.000, 0.000, 0.000, 22:41:53.228, 1541907713228
100, -10260.08, 13015.15, 187500.00, 187500.00, -187500.02, -187500.02, -187500.02, -187500.02, 0.000, 0.000, 0.000, 22:41:53.228, 1541907713228
101, -10203.03, 12789.42, 187500.00, 187500.00, -187500.02, -187500.02, -187500.02, -187500.02, 0.000, 0.000, 0.000, 22:41:53.228, 1541907713228
102, -9926.79, 13176.49, 187500.00, 187500.00, -187500.02, -187500.02, -187500.02, -187500.02, 0.000, 0.000, 0.000, 22:41:53.228, 1541907713228
103, -10047.02, 13337.44, 187500.00, 187500.00, -187500.02, -187500.02, -187500.02, -187500.02, 0.000, 0.000, 0.000, 22:41:53.232, 1541907713232
104, -10243.83, 13086.30, 187500.00, 187500.00, -187500.02, -187500.02, -187500.02, -187500.02, 0.000, 0.000, 0.000, 22:41:53.232, 1541907713232
105, -10225.19, 12808.55, 187500.00, 187500.00, -187500.02, -187500.02, -187500.02, -187500.02, 0.054, 0.774, 0.616, 22:41:53.232, 1541907713232
106, -9915.17, 13115.69, 187500.00, 187500.00, -187500.02, -187500.02, -187500.02, -187500.02, 0.000, 0.000, 0.000, 22:41:53.232, 1541907713232
107, -9944.11, 13382.41, 187500.00, 187500.00, -187500.02, -187500.02, -187500.02, -187500.02, 0.000, 0.000, 0.000, 22:41:53.232, 1541907713232
108, -10150.73, 13162.20, 187500.00, 187500.00, -187500.02, -187500.02, -187500.02, -187500.02, 0.000, 0.000, 0.000, 22:41:53.232, 1541907713232
109, -10205.38, 12840.61, 187500.00, 187500.00, -187500.02, -187500.02, -187500.02, -187500.02, 0.000, 0.000, 0.000, 22:41:53.233, 1541907713233
110, -9962.44, 13013.39, 187500.00, 187500.00, -187500.02, -187500.02, -187500.02, -187500.02, 0.000, 0.000, 0.000, 22:41:53.233, 1541907713233
111, -9919.91, 13364.06, 187500.00, 187500.00, -187500.02, -187500.02, -187500.02, -187500.02, 0.000, 0.000, 0.000, 22:41:53.234, 1541907713234
112, -10133.54, 13205.08, 187500.00, 187500.00, -187500.02, -187500.02, -187500.02, -187500.02, 0.000, 0.000, 0.000, 22:41:53.235, 1541907713235
113, -10239.31, 12903.53, 187500.00, 187500.00, -187500.02, -187500.02, -187500.02, -187500.02, 0.000, 0.000, 0.000, 22:41:53.235, 1541907713235
114, -10021.07, 12936.83, 187500.00, 187500.00, -187500.02, -187500.02, -187500.02, -187500.02, 0.000, 0.000, 0.000, 22:41:53.235, 1541907713235
115, -9878.71, 13353.69, 187500.00, 187500.00, -187500.02, -187500.02, -187500.02, -187500.02, 0.050, 0.786, 0.618, 22:41:53.235, 1541907713235
116, -10081.62, 13267.75, 187500.00, 187500.00, -187500.02, -187500.02, -187500.02, -187500.02, 0.000, 0.000, 0.000, 22:41:53.235, 1541907713235
117, -10218.64, 12954.76, 187500.00, 187500.00, -187500.02, -187500.02, -187500.02, -187500.02, 0.000, 0.000, 0.000, 22:41:53.236, 1541907713236
118, -10058.71, 12869.87, 187500.00, 187500.00, -187500.02, -187500.02, -187500.02, -187500.02, 0.000, 0.000, 0.000, 22:41:53.236, 1541907713236
119, -9824.33, 13341.33, 187500.00, 187500.00, -187500.02, -187500.02, -187500.02, -187500.02, 0.000, 0.000, 0.000, 22:41:53.236, 1541907713236
120, -10021.83, 13349.94, 187500.00, 187500.00, -187500.02, -187500.02, -187500.02, -187500.02, 0.000, 0.000, 0.000, 22:41:53.237, 1541907713237
121, -10209.09, 13031.65, 187500.00, 187500.00, -187500.02, -187500.02, -187500.02, -187500.02, 0.000, 0.000, 0.000, 22:41:53.675, 1541907713675
122, -10094.92, 12849.62, 187500.00, 187500.00, -187500.02, -187500.02, -187500.02, -187500.02, 0.000, 0.000, 0.000, 22:41:53.675, 1541907713675
123, -9839.55, 13299.69, 187500.00, 187500.00, -187500.02, -187500.02, -187500.02, -187500.02, 0.000, 0.000, 0.000, 22:41:53.676, 1541907713676
124, -10028.80, 13389.34, 187500.00, 187500.00, -187500.02, -187500.02, -187500.02, -187500.02, 0.000, 0.000, 0.000, 22:41:53.676, 1541907713676
125, -10221.54, 13091.06, 187500.00, 187500.00, -187500.02, -187500.02, -187500.02, -187500.02, 0.044, 0.814, 0.632, 22:41:53.676, 1541907713676
126, -10169.40, 12860.88, 187500.00, 187500.00, -187500.02, -187500.02, -187500.02, -187500.02, 0.000, 0.000, 0.000, 22:41:53.676, 1541907713676
127, -9852.58, 13258.34, 187500.00, 187500.00, -187500.02, -187500.02, -187500.02, -187500.02, 0.000, 0.000, 0.000, 22:41:53.676, 1541907713676
128, -9919.35, 13451.75, 187500.00, 187500.00, -187500.02, -187500.02, -187500.02, -187500.02, 0.000, 0.000, 0.000, 22:41:53.676, 1541907713676
129, -10163.92, 13199.04, 187500.00, 187500.00, -187500.02, -187500.02, -187500.02, -187500.02, 0.000, 0.000, 0.000, 22:41:53.676, 1541907713676
130, -10229.88, 12894.27, 187500.00, 187500.00, -187500.02, -187500.02, -187500.02, -187500.02, 0.000, 0.000, 0.000, 22:41:53.676, 1541907713676
131, -9922.77, 13177.00, 187500.00, 187500.00, -187500.02, -187500.02, -187500.02, -187500.02, 0.000, 0.000, 0.000, 22:41:53.676, 1541907713676
132, -9900.33, 13491.96, 187500.00, 187500.00, -187500.02, -187500.02, -187500.02, -187500.02, 0.000, 0.000, 0.000, 22:41:53.676, 1541907713676
133, -10150.96, 13258.27, 187500.00, 187500.00, -187500.02, -187500.02, -187500.02, -187500.02, 0.000, 0.000, 0.000, 22:41:53.676, 1541907713676
134, -10256.46, 12918.50, 187500.00, 187500.00, -187500.02, -187500.02, -187500.02, -187500.02, 0.000, 0.000, 0.000, 22:41:53.676, 1541907713676
135, -9982.42, 13060.44, 187500.00, 187500.00, -187500.02, -187500.02, -187500.02, -187500.02, 0.050, 0.824, 0.634, 22:41:53.677, 1541907713677
136, -9883.96, 13462.01, 187500.00, 187500.00, -187500.02, -187500.02, -187500.02, -187500.02, 0.000, 0.000, 0.000, 22:41:53.677, 1541907713677
137, -10141.70, 13303.78, 187500.00, 187500.00, -187500.02, -187500.02, -187500.02, -187500.02, 0.000, 0.000, 0.000, 22:41:53.678, 1541907713678
138, -10255.00, 12970.34, 187500.00, 187500.00, -187500.02, -187500.02, -187500.02, -187500.02, 0.000, 0.000, 0.000, 22:41:53.678, 1541907713678
139, -10032.02, 12998.79, 187500.00, 187500.00, -187500.02, -187500.02, -187500.02, -187500.02, 0.000, 0.000, 0.000, 22:41:53.678, 1541907713678
140, -9862.62, 13441.80, 187500.00, 187500.00, -187500.02, -187500.02, -187500.02, -187500.02, 0.000, 0.000, 0.000, 22:41:53.679, 1541907713679
141, -10060.56, 13368.44, 187500.00, 187500.00, -187500.02, -187500.02, -187500.02, -187500.02, 0.000, 0.000, 0.000, 22:41:53.679, 1541907713679
142, -10222.95, 13044.75, 187500.00, 187500.00, -187500.02, -187500.02, -187500.02, -187500.02, 0.000, 0.000, 0.000, 22:41:53.679, 1541907713679
143, -10092.13, 12939.78, 187500.00, 187500.00, -187500.02, -187500.02, -187500.02, -187500.02, 0.000, 0.000, 0.000, 22:41:53.679, 1541907713679
144, -9867.78, 13393.17, 187500.00, 187500.00, -187500.02, -187500.02, -187500.02, -187500.02, 0.038, 0.830, 0.634, 22:41:53.679, 1541907713679
145, -10055.65, 13402.98, 187500.00, 187500.00, -187500.02, -187500.02, -187500.02, -187500.02, 0.000, 0.000, 0.000, 22:41:53.679, 1541907713679
146, -10231.44, 13102.32, 187500.00, 187500.00, -187500.02, -187500.02, -187500.02, -187500.02, 0.000, 0.000, 0.000, 22:41:53.679, 1541907713679
147, -10151.51, 12911.93, 187500.00, 187500.00, -187500.02, -187500.02, -187500.02, -187500.02, 0.000, 0.000, 0.000, 22:41:53.679, 1541907713679
148, -9852.74, 13346.03, 187500.00, 187500.00, -187500.02, -187500.02, -187500.02, -187500.02, 0.000, 0.000, 0.000, 22:41:53.679, 1541907713679
149, -9986.74, 13459.57, 187500.00, 187500.00, -187500.02, -187500.02, -187500.02, -187500.02, 0.000, 0.000, 0.000, 22:41:53.679, 1541907713679
150, -10167.16, 13203.60, 187500.00, 187500.00, -187500.02, -187500.02, -187500.02, -187500.02, 0.000, 0.000, 0.000, 22:41:53.679, 1541907713679
151, -10171.79, 12939.83, 187500.00, 187500.00, -187500.02, -187500.02, -187500.02, -187500.02, 0.000, 0.000, 0.000, 22:41:53.679, 1541907713679
152, -9896.32, 13288.11, 187500.00, 187500.00, -187500.02, -187500.02, -187500.02, -187500.02, 0.000, 0.000, 0.000, 22:41:53.680, 1541907713680
153, -9953.43, 13501.30, 187500.00, 187500.00, -187500.02, -187500.02, -187500.02, -187500.02, 0.000, 0.000, 0.000, 22:41:53.680, 1541907713680
154, -10146.26, 13265.16, 187500.00, 187500.00, -187500.02, -187500.02, -187500.02, -187500.02, 0.048, 0.824, 0.632, 22:41:53.680, 1541907713680
155, -10210.52, 12959.41, 187500.00, 187500.00, -187500.02, -187500.02, -187500.02, -187500.02, 0.000, 0.000, 0.000, 22:41:53.680, 1541907713680
156, -9939.28, 13188.56, 187500.00, 187500.00, -187500.02, -187500.02, -187500.02, -187500.02, 0.000, 0.000, 0.000, 22:41:53.680, 1541907713680
157, -9924.31, 13499.42, 187500.00, 187500.00, -187500.02, -187500.02, -187500.02, -187500.02, 0.000, 0.000, 0.000, 22:41:53.680, 1541907713680
158, -10145.52, 13296.25, 187500.00, 187500.00, -187500.02, -187500.02, -187500.02, -187500.02, 0.000, 0.000, 0.000, 22:41:53.680, 1541907713680
159, -10225.68, 12973.82, 187500.00, 187500.00, -187500.02, -187500.02, -187500.02, -187500.02, 0.000, 0.000, 0.000, 22:41:53.680, 1541907713680
160, -9970.64, 13077.27, 187500.00, 187500.00, -187500.02, -187500.02, -187500.02, -187500.02, 0.000, 0.000, 0.000, 22:41:53.680, 1541907713680
161, -9899.90, 13465.96, 187500.00, 187500.00, -187500.02, -187500.02, -187500.02, -187500.02, 0.000, 0.000, 0.000, 22:41:53.680, 1541907713680
162, -10136.94, 13338.20, 187500.00, 187500.00, -187500.02, -187500.02, -187500.02, -187500.02, 0.000, 0.000, 0.000, 22:41:53.680, 1541907713680
163, -10246.51, 13005.63, 187500.00, 187500.00, -187500.02, -187500.02, -187500.02, -187500.02, 0.000, 0.000, 0.000, 22:41:53.680, 1541907713680
164, -10037.54, 12984.37, 187500.00, 187500.00, -187500.02, -187500.02, -187500.02, -187500.02, 0.062, 0.798, 0.618, 22:41:53.680, 1541907713680
165, -9834.72, 13444.95, 187500.00, 187500.00, -187500.02, -187500.02, -187500.02, -187500.02, 0.000, 0.000, 0.000, 22:41:53.681, 1541907713681
166, -10068.61, 13394.51, 187500.00, 187500.00, -187500.02, -187500.02, -187500.02, -187500.02, 0.000, 0.000, 0.000, 22:41:53.681, 1541907713681
167, -10263.94, 13049.13, 187500.00, 187500.00, -187500.02, -187500.02, -187500.02, -187500.02, 0.000, 0.000, 0.000, 22:41:53.681, 1541907713681
168, -10131.78, 12910.28, 187500.00, 187500.00, -187500.02, -187500.02, -187500.02, -187500.02, 0.000, 0.000, 0.000, 22:41:53.681, 1541907713681
169, -9876.21, 13380.74, 187500.00, 187500.00, -187500.02, -187500.02, -187500.02, -187500.02, 0.000, 0.000, 0.000, 22:41:53.681, 1541907713681
170, -10044.34, 13427.56, 187500.00, 187500.00, -187500.02, -187500.02, -187500.02, -187500.02, 0.000, 0.000, 0.000, 22:41:53.681, 1541907713681
171, -10209.58, 13138.31, 187500.00, 187500.00, -187500.02, -187500.02, -187500.02, -187500.02, 0.000, 0.000, 0.000, 22:41:53.681, 1541907713681
172, -10174.78, 12900.20, 187500.00, 187500.00, -187500.02, -187500.02, -187500.02, -187500.02, 0.000, 0.000, 0.000, 22:41:53.681, 1541907713681
173, -9890.67, 13310.84, 187500.00, 187500.00, -187500.02, -187500.02, -187500.02, -187500.02, 0.000, 0.000, 0.000, 22:41:53.681, 1541907713681
174, -10005.89, 13448.13, 187500.00, 187500.00, -187500.02, -187500.02, -187500.02, -187500.02, 0.070, 0.790, 0.594, 22:41:53.681, 1541907713681
175, -10209.25, 13174.54, 187500.00, 187500.00, -187500.02, -187500.02, -187500.02, -187500.02, 0.000, 0.000, 0.000, 22:41:53.681, 1541907713681
176, -10204.04, 12902.68, 187500.00, 187500.00, -187500.02, -187500.02, -187500.02, -187500.02, 0.000, 0.000, 0.000, 22:41:53.682, 1541907713682
177, -9908.24, 13230.80, 187500.00, 187500.00, -187500.02, -187500.02, -187500.02, -187500.02, 0.000, 0.000, 0.000, 22:41:53.682, 1541907713682
178, -9954.59, 13467.42, 187500.00, 187500.00, -187500.02, -187500.02, -187500.02, -187500.02, 0.000, 0.000, 0.000, 22:41:53.682, 1541907713682
179, -10167.74, 13237.78, 187500.00, 187500.00, -187500.02, -187500.02, -187500.02, -187500.02, 0.000, 0.000, 0.000, 22:41:53.682, 1541907713682
180, -10235.11, 12915.37, 187500.00, 187500.00, -187500.02, -187500.02, -187500.02, -187500.02, 0.000, 0.000, 0.000, 22:41:53.682, 1541907713682
181, -9937.29, 13118.22, 187500.00, 187500.00, -187500.02, -187500.02, -187500.02, -187500.02, 0.000, 0.000, 0.000, 22:41:53.682, 1541907713682
182, -9899.16, 13452.20, 187500.00, 187500.00, -187500.02, -187500.02, -187500.02, -187500.02, 0.000, 0.000, 0.000, 22:41:53.682, 1541907713682
183, -10159.81, 13258.00, 187500.00, 187500.00, -187500.02, -187500.02, -187500.02, -187500.02, 0.058, 0.782, 0.566, 22:41:53.682, 1541907713682
184, -10263.81, 12946.91, 187500.00, 187500.00, -187500.02, -187500.02, -187500.02, -187500.02, 0.000, 0.000, 0.000, 22:41:53.682, 1541907713682
185, -10013.71, 13023.51, 187500.00, 187500.00, -187500.02, -187500.02, -187500.02, -187500.02, 0.000, 0.000, 0.000, 22:41:53.682, 1541907713682
186, -9883.85, 13444.10, 187500.00, 187500.00, -187500.02, -187500.02, -187500.02, -187500.02, 0.000, 0.000, 0.000, 22:41:53.682, 1541907713682
187, -10106.09, 13333.55, 187500.00, 187500.00, -187500.02, -187500.02, -187500.02, -187500.02, 0.000, 0.000, 0.000, 22:41:53.683, 1541907713683
188, -10241.50, 12985.94, 187500.00, 187500.00, -187500.02, -187500.02, -187500.02, -187500.02, 0.000, 0.000, 0.000, 22:41:53.683, 1541907713683
189, -10088.46, 12907.66, 187500.00, 187500.00, -187500.02, -187500.02, -187500.02, -187500.02, 0.000, 0.000, 0.000, 22:41:53.683, 1541907713683
190, -9889.80, 13376.62, 187500.00, 187500.00, -187500.02, -187500.02, -187500.02, -187500.02, 0.000, 0.000, 0.000, 22:41:53.683, 1541907713683
191, -10079.29, 13352.84, 187500.00, 187500.00, -187500.02, -187500.02, -187500.02, -187500.02, 0.000, 0.000, 0.000, 22:41:53.685, 1541907713685
192, -10240.92, 13036.10, 187500.00, 187500.00, -187500.02, -187500.02, -187500.02, -187500.02, 0.000, 0.000, 0.000, 22:41:53.685, 1541907713685
193, -10131.31, 12867.99, 187500.00, 187500.00, -187500.02, -187500.02, -187500.02, -187500.02, 0.066, 0.786, 0.552, 22:41:53.686, 1541907713686
194, -9876.32, 13341.67, 187500.00, 187500.00, -187500.02, -187500.02, -187500.02, -187500.02, 0.000, 0.000, 0.000, 22:41:53.686, 1541907713686
195, -10022.99, 13401.95, 187500.00, 187500.00, -187500.02, -187500.02, -187500.02, -187500.02, 0.000, 0.000, 0.000, 22:41:53.686, 1541907713686
196, -10214.41, 13117.66, 187500.00, 187500.00, -187500.02, -187500.02, -187500.02, -187500.02, 0.000, 0.000, 0.000, 22:41:53.686, 1541907713686
197, -10210.54, 12847.54, 187500.00, 187500.00, -187500.02, -187500.02, -187500.02, -187500.02, 0.000, 0.000, 0.000, 22:41:53.686, 1541907713686
198, -9901.93, 13266.01, 187500.00, 187500.00, -187500.02, -187500.02, -187500.02, -187500.02, 0.000, 0.000, 0.000, 22:41:53.686, 1541907713686
199, -9990.31, 13441.69, 187500.00, 187500.00, -187500.02, -187500.02, -187500.02, -187500.02, 0.000, 0.000, 0.000, 22:41:53.686, 1541907713686
200, -10212.67, 13140.12, 187500.00, 187500.00, -187500.02, -187500.02, -187500.02, -187500.02, 0.000, 0.000, 0.000, 22:41:53.686, 1541907713686
201, -10256.14, 12820.76, 187500.00, 187500.00, -187500.02, -187500.02, -187500.02, -187500.02, 0.000, 0.000, 0.000, 22:41:53.686, 1541907713686
202, -9942.39, 13150.29, 187500.00, 187500.00, -187500.02, -187500.02, -187500.02, -187500.02, 0.000, 0.000, 0.000, 22:41:53.686, 1541907713686
203, -9960.45, 13430.92, 187500.00, 187500.00, -187500.02, -187500.02, -187500.02, -187500.02, 0.060, 0.794, 0.546, 22:41:53.686, 1541907713686
204, -10165.10, 13213.64, 187500.00, 187500.00, -187500.02, -187500.02, -187500.02, -187500.02, 0.000, 0.000, 0.000, 22:41:53.686, 1541907713686
205, -10257.42, 12895.57, 187500.00, 187500.00, -187500.02, -187500.02, -187500.02, -187500.02, 0.000, 0.000, 0.000, 22:41:53.687, 1541907713687
206, -10004.62, 13085.38, 187500.00, 187500.00, -187500.02, -187500.02, -187500.02, -187500.02, 0.000, 0.000, 0.000, 22:41:53.687, 1541907713687
207, -9910.12, 13465.50, 187500.00, 187500.00, -187500.02, -187500.02, -187500.02, -187500.02, 0.000, 0.000, 0.000, 22:41:53.687, 1541907713687
208, -10116.76, 13317.86, 187500.00, 187500.00, -187500.02, -187500.02, -187500.02, -187500.02, 0.000, 0.000, 0.000, 22:41:53.687, 1541907713687
209, -10222.77, 12997.79, 187500.00, 187500.00, -187500.02, -187500.02, -187500.02, -187500.02, 0.000, 0.000, 0.000, 22:41:53.687, 1541907713687
210, -10008.71, 13032.30, 187500.00, 187500.00, -187500.02, -187500.02, -187500.02, -187500.02, 0.000, 0.000, 0.000, 22:41:53.687, 1541907713687
211, -9859.38, 13477.16, 187500.00, 187500.00, -187500.02, -187500.02, -187500.02, -187500.02, 0.000, 0.000, 0.000, 22:41:53.688, 1541907713688
212, -10070.62, 13384.40, 187500.00, 187500.00, -187500.02, -187500.02, -187500.02, -187500.02, 0.000, 0.000, 0.000, 22:41:53.688, 1541907713688
213, -10200.98, 13053.71, 187500.00, 187500.00, -187500.02, -187500.02, -187500.02, -187500.02, 0.078, 0.828, 0.540, 22:41:53.688, 1541907713688
214, -10052.90, 12957.55, 187500.00, 187500.00, -187500.02, -187500.02, -187500.02, -187500.02, 0.000, 0.000, 0.000, 22:41:53.689, 1541907713689
215, -9821.18, 13425.78, 187500.00, 187500.00, -187500.02, -187500.02, -187500.02, -187500.02, 0.000, 0.000, 0.000, 22:41:53.689, 1541907713689
216, -10014.99, 13410.33, 187500.00, 187500.00, -187500.02, -187500.02, -187500.02, -187500.02, 0.000, 0.000, 0.000, 22:41:53.689, 1541907713689
217, -10189.13, 13100.94, 187500.00, 187500.00, -187500.02, -187500.02, -187500.02, -187500.02, 0.000, 0.000, 0.000, 22:41:53.689, 1541907713689
218, -10114.86, 12915.80, 187500.00, 187500.00, -187500.02, -187500.02, -187500.02, -187500.02, 0.000, 0.000, 0.000, 22:41:53.689, 1541907713689
219, -9856.43, 13333.04, 187500.00, 187500.00, -187500.02, -187500.02, -187500.02, -187500.02, 0.000, 0.000, 0.000, 22:41:53.689, 1541907713689
220, -10010.25, 13392.41, 187500.00, 187500.00, -187500.02, -187500.02, -187500.02, -187500.02, 0.000, 0.000, 0.000, 22:41:53.689, 1541907713689
221, -10196.87, 13121.48, 187500.00, 187500.00, -187500.02, -187500.02, -187500.02, -187500.02, 0.000, 0.000, 0.000, 22:41:53.689, 1541907713689
222, -10180.08, 12906.28, 187500.00, 187500.00, -187500.02, -187500.02, -187500.02, -187500.02, 0.000, 0.000, 0.000, 22:41:53.689, 1541907713689
223, -9910.41, 13252.84, 187500.00, 187500.00, -187500.02, -187500.02, -187500.02, -187500.02, 0.106, 0.836, 0.532, 22:41:53.689, 1541907713689
224, -9976.41, 13403.74, 187500.00, 187500.00, -187500.02, -187500.02, -187500.02, -187500.02, 0.000, 0.000, 0.000, 22:41:53.689, 1541907713689
225, -10180.44, 13177.49, 187500.00, 187500.00, -187500.02, -187500.02, -187500.02, -187500.02, 0.000, 0.000, 0.000, 22:41:53.690, 1541907713690
226, -10226.30, 12886.74, 187500.00, 187500.00, -187500.02, -187500.02, -187500.02, -187500.02, 0.000, 0.000, 0.000, 22:41:53.690, 1541907713690
227, -9953.25, 13156.10, 187500.00, 187500.00, -187500.02, -187500.02, -187500.02, -187500.02, 0.000, 0.000, 0.000, 22:41:53.690, 1541907713690
228, -9952.63, 13428.50, 187500.00, 187500.00, -187500.02, -187500.02, -187500.02, -187500.02, 0.000, 0.000, 0.000, 22:41:53.690, 1541907713690
229, -10144.74, 13243.01, 187500.00, 187500.00, -187500.02, -187500.02, -187500.02, -187500.02, 0.000, 0.000, 0.000, 22:41:53.690, 1541907713690
230, -10205.56, 12956.77, 187500.00, 187500.00, -187500.02, -187500.02, -187500.02, -187500.02, 0.000, 0.000, 0.000, 22:41:53.690, 1541907713690
231, -9953.88, 13095.26, 187500.00, 187500.00, -187500.02, -187500.02, -187500.02, -187500.02, 0.000, 0.000, 0.000, 22:41:53.690, 1541907713690
232, -9910.88, 13426.25, 187500.00, 187500.00, -187500.02, -187500.02, -187500.02, -187500.02, 0.132, 0.864, 0.548, 22:41:53.690, 1541907713690
233, -10139.22, 13285.50, 187500.00, 187500.00, -187500.02, -187500.02, -187500.02, -187500.02, 0.000, 0.000, 0.000, 22:41:53.690, 1541907713690
234, -10215.69, 12981.36, 187500.00, 187500.00, -187500.02, -187500.02, -187500.02, -187500.02, 0.000, 0.000, 0.000, 22:41:53.690, 1541907713690
235, -10000.95, 12994.70, 187500.00, 187500.00, -187500.02, -187500.02, -187500.02, -187500.02, 0.000, 0.000, 0.000, 22:41:53.691, 1541907713691
236, -9872.36, 13401.05, 187500.00, 187500.00, -187500.02, -187500.02, -187500.02, -187500.02, 0.000, 0.000, 0.000, 22:41:53.691, 1541907713691
237, -10094.52, 13308.50, 187500.00, 187500.00, -187500.02, -187500.02, -187500.02, -187500.02, 0.000, 0.000, 0.000, 22:41:53.691, 1541907713691
238, -10215.40, 13001.52, 187500.00, 187500.00, -187500.02, -187500.02, -187500.02, -187500.02, 0.000, 0.000, 0.000, 22:41:53.691, 1541907713691
239, -10075.43, 12914.37, 187500.00, 187500.00, -187500.02, -187500.02, -187500.02, -187500.02, 0.000, 0.000, 0.000, 22:41:53.691, 1541907713691
240, -9837.14, 13344.06, 187500.00, 187500.00, -187500.02, -187500.02, -187500.02, -187500.02, 0.000, 0.000, 0.000, 22:41:53.691, 1541907713691
241, -10011.64, 13356.35, 187500.00, 187500.00, -187500.02, -187500.02, -187500.02, -187500.02, 0.000, 0.000, 0.000, 22:41:54.143, 1541907714143
242, -10195.79, 13083.93, 187500.00, 187500.00, -187500.02, -187500.02, -187500.02, -187500.02, 0.122, 0.864, 0.580, 22:41:54.143, 1541907714143
243, -10140.43, 12896.49, 187500.00, 187500.00, -187500.02, -187500.02, -187500.02, -187500.02, 0.000, 0.000, 0.000, 22:41:54.143, 1541907714143
244, -9862.42, 13310.82, 187500.00, 187500.00, -187500.02, -187500.02, -187500.02, -187500.02, 0.000, 0.000, 0.000, 22:41:54.143, 1541907714143
245, -9996.84, 13396.34, 187500.00, 187500.00, -187500.02, -187500.02, -187500.02, -187500.02, 0.000, 0.000, 0.000, 22:41:54.143, 1541907714143
246, -10169.64, 13170.81, 187500.00, 187500.00, -187500.02, -187500.02, -187500.02, -187500.02, 0.000, 0.000, 0.000, 22:41:54.144, 1541907714144
247, -10167.56, 12917.54, 187500.00, 187500.00, -187500.02, -187500.02, -187500.02, -187500.02, 0.000, 0.000, 0.000, 22:41:54.144, 1541907714144
248, -9892.12, 13242.85, 187500.00, 187500.00, -187500.02, -187500.02, -187500.02, -187500.02, 0.000, 0.000, 0.000, 22:41:54.144, 1541907714144
249, -9957.54, 13426.45, 187500.00, 187500.00, -187500.02, -187500.02, -187500.02, -187500.02, 0.000, 0.000, 0.000, 22:41:54.144, 1541907714144
250, -10152.61, 13196.33, 187500.00, 187500.00, -187500.02, -187500.02, -187500.02, -187500.02, 0.000, 0.000, 0.000, 22:41:54.144, 1541907714144
251, -10189.98, 12903.57, 187500.00, 187500.00, -187500.02, -187500.02, -187500.02, -187500.02, 0.000, 0.000, 0.000, 22:41:54.144, 1541907714144
252, -9917.38, 13138.98, 187500.00, 187500.00, -187500.02, -187500.02, -187500.02, -187500.02, 0.098, 0.810, 0.590, 22:41:54.144, 1541907714144
253, -9889.17, 13440.73, 187500.00, 187500.00, -187500.02, -187500.02, -187500.02, -187500.02, 0.000, 0.000, 0.000, 22:41:54.144, 1541907714144
254, -10098.65, 13249.00, 187500.00, 187500.00, -187500.02, -187500.02, -187500.02, -187500.02, 0.000, 0.000, 0.000, 22:41:54.144, 1541907714144
255, -10201.25, 12931.89, 187500.00, 187500.00, -187500.02, -187500.02, -187500.02, -187500.02, 0.000, 0.000, 0.000, 22:41:54.144, 1541907714144
0, -9958.06, 13041.13, 187500.00, 187500.00, -187500.02, -187500.02, -187500.02, -187500.02, 0.000, 0.000, 0.000, 22:41:54.144, 1541907714144
1, -9863.11, 13401.48, 187500.00, 187500.00, -187500.02, -187500.02, -187500.02, -187500.02, 0.000, 0.000, 0.000, 22:41:54.144, 1541907714144
2, -10071.79, 13270.61, 187500.00, 187500.00, -187500.02, -187500.02, -187500.02, -187500.02, 0.000, 0.000, 0.000, 22:41:54.145, 1541907714145
3, -10159.23, 12976.22, 187500.00, 187500.00, -187500.02, -187500.02, -187500.02, -187500.02, 0.000, 0.000, 0.000, 22:41:54.145, 1541907714145
4, -9990.83, 12959.45, 187500.00, 187500.00, -187500.02, -187500.02, -187500.02, -187500.02, 0.000, 0.000, 0.000, 22:41:54.145, 1541907714145
5, -9838.19, 13386.42, 187500.00, 187500.00, -187500.02, -187500.02, -187500.02, -187500.02, 0.000, 0.000, 0.000, 22:41:54.145, 1541907714145
6, -10013.71, 13338.87, 187500.00, 187500.00, -187500.02, -187500.02, -187500.02, -187500.02, 0.086, 0.796, 0.586, 22:41:54.145, 1541907714145
7, -10148.83, 13040.30, 187500.00, 187500.00, -187500.02, -187500.02, -187500.02, -187500.02, 0.000, 0.000, 0.000, 22:41:54.145, 1541907714145
8, -10038.59, 12883.95, 187500.00, 187500.00, -187500.02, -187500.02, -187500.02, -187500.02, 0.000, 0.000, 0.000, 22:41:54.145, 1541907714145
9, -9816.46, 13314.62, 187500.00, 187500.00, -187500.02, -187500.02, -187500.02, -187500.02, 0.000, 0.000, 0.000, 22:41:54.145, 1541907714145
10, -9974.85, 13364.60, 187500.00, 187500.00, -187500.02, -187500.02, -187500.02, -187500.02, 0.000, 0.000, 0.000, 22:41:54.146, 1541907714146
11, -10158.02, 13082.81, 187500.00, 187500.00, -187500.02, -187500.02, -187500.02, -187500.02, 0.000, 0.000, 0.000, 22:41:54.146, 1541907714146
12, -10100.26, 12858.58, 187500.00, 187500.00, -187500.02, -187500.02, -187500.02, -187500.02, 0.000, 0.000, 0.000, 22:41:54.146, 1541907714146
13, -9833.09, 13244.59, 187500.00, 187500.00, -187500.02, -187500.02, -187500.02, -187500.02, 0.000, 0.000, 0.000, 22:41:54.146, 1541907714146
14, -9946.12, 13358.90, 187500.00, 187500.00, -187500.02, -187500.02, -187500.02, -187500.02, 0.000, 0.000, 0.000, 22:41:54.146, 1541907714146
15, -10123.13, 13117.25, 187500.00, 187500.00, -187500.02, -187500.02, -187500.02, -187500.02, 0.094, 0.786, 0.558, 22:41:54.146, 1541907714146
16, -10097.20, 12858.65, 187500.00, 187500.00, -187500.02, -187500.02, -187500.02, -187500.02, 0.000, 0.000, 0.000, 22:41:54.146, 1541907714146
17, -9829.47, 13186.39, 187500.00, 187500.00, -187500.02, -187500.02, -187500.02, -187500.02, 0.000, 0.000, 0.000, 22:41:54.146, 1541907714146
18, -9924.24, 13386.44, 187500.00, 187500.00, -187500.02, -187500.02, -187500.02, -187500.02, 0.000, 0.000, 0.000, 22:41:54.146, 1541907714146
19, -10117.61, 13157.64, 187500.00, 187500.00, -187500.02, -187500.02, -187500.02, -187500.02, 0.000, 0.000, 0.000, 22:41:54.146, 1541907714146
20, -10157.77, 12861.66, 187500.00, 187500.00, -187500.02, -187500.02, -187500.02, -187500.02, 0.000, 0.000, 0.000, 22:41:54.146, 1541907714146
21, -9908.75, 13074.50, 187500.00, 187500.00, -187500.02, -187500.02, -187500.02, -187500.02, 0.000, 0.000, 0.000, 22:41:54.147, 1541907714147
22, -9867.27, 13393.75, 187500.00, 187500.00, -187500.02, -187500.02, -187500.02, -187500.02, 0.000, 0.000, 0.000, 22:41:54.147, 1541907714147
23, -10067.38, 13222.31, 187500.00, 187500.00, -187500.02, -187500.02, -187500.02, -187500.02, 0.000, 0.000, 0.000, 22:41:54.147, 1541907714147
24, -10151.54, 12936.25, 187500.00, 187500.00, -187500.02, -187500.02, -187500.02, -187500.02, 0.000, 0.000, 0.000, 22:41:54.147, 1541907714147
25, -9945.48, 13049.62, 187500.00, 187500.00, -187500.02, -187500.02, -187500.02, -187500.02, 0.106, 0.812, 0.552, 22:41:54.147, 1541907714147
26, -9864.81, 13432.71, 187500.00, 187500.00, -187500.02, -187500.02, -187500.02, -187500.02, 0.000, 0.000, 0.000, 22:41:54.147, 1541907714147
27, -10043.13, 13319.09, 187500.00, 187500.00, -187500.02, -187500.02, -187500.02, -187500.02, 0.000, 0.000, 0.000, 22:41:54.147, 1541907714147
28, -10132.45, 13045.42, 187500.00, 187500.00, -187500.02, -187500.02, -187500.02, -187500.02, 0.000, 0.000, 0.000, 22:41:54.147, 1541907714147
29, -9978.24, 13035.29, 187500.00, 187500.00, -187500.02, -187500.02, -187500.02, -187500.02, 0.000, 0.000, 0.000, 22:41:54.147, 1541907714147
30, -9809.69, 13449.40, 187500.00, 187500.00, -187500.02, -187500.02, -187500.02, -187500.02, 0.000, 0.000, 0.000, 22:41:54.147, 1541907714147
31, -9979.56, 13397.37, 187500.00, 187500.00, -187500.02, -187500.02, -187500.02, -187500.02, 0.000, 0.000, 0.000, 22:41:54.147, 1541907714147
32, -10098.34, 13144.14, 187500.00, 187500.00, -187500.02, -187500.02, -187500.02, -187500.02, 0.000, 0.000, 0.000, 22:41:54.147, 1541907714147
33, -9993.93, 13017.81, 187500.00, 187500.00, -187500.02, -187500.02, -187500.02, -187500.02, 0.000, 0.000, 0.000, 22:41:54.148, 1541907714148
34, -9794.38, 13447.50, 187500.00, 187500.00, -187500.02, -187500.02, -187500.02, -187500.02, 0.000, 0.000, 0.000, 22:41:54.148, 1541907714148
35, -9961.97, 13525.22, 187500.00, 187500.00, -187500.02, -187500.02, -187500.02, -187500.02, 0.130, 0.832, 0.558, 22:41:54.148, 1541907714148
36, -10105.07, 13316.19, 187500.00, 187500.00, -187500.02, -187500.02, -187500.02, -187500.02, 0.000, 0.000, 0.000, 22:41:54.148, 1541907714148
37, -10077.53, 13085.14, 187500.00, 187500.00, -187500.02, -187500.02, -187500.02, -187500.02, 0.000, 0.000, 0.000, 22:41:54.148, 1541907714148
38, -9804.59, 13478.88, 187500.00, 187500.00, -187500.02, -187500.02, -187500.02, -187500.02, 0.000, 0.000, 0.000, 22:41:54.148, 1541907714148
39, -9905.87, 13618.20, 187500.00, 187500.00, -187500.02, -187500.02, -187500.02, -187500.02, 0.000, 0.000, 0.000, 22:41:54.148, 1541907714148
40, -10077.48, 13381.68, 187500.00, 187500.00, -187500.02, -187500.02, -187500.02, -187500.02, 0.000, 0.000, 0.000, 22:41:54.148, 1541907714148
41, -10089.46, 13133.06, 187500.00, 187500.00, -187500.02, -187500.02, -187500.02, -187500.02, 0.000, 0.000, 0.000, 22:41:54.148, 1541907714148
42, -9817.78, 13420.90, 187500.00, 187500.00, -187500.02, -187500.02, -187500.02, -187500.02, 0.000, 0.000, 0.000, 22:41:54.148, 1541907714148
43, -9864.18, 13661.70, 187500.00, 187500.00, -187500.02, -187500.02, -187500.02, -187500.02, 0.000, 0.000, 0.000, 22:41:54.148, 1541907714148
44, -10054.19, 13468.02, 187500.00, 187500.00, -187500.02, -187500.02, -187500.02, -187500.02, 0.000, 0.000, 0.000, 22:41:54.148, 1541907714148
45, -10127.35, 13155.74, 187500.00, 187500.00, -187500.02, -187500.02, -187500.02, -187500.02, 0.126, 0.826, 0.576, 22:41:54.149, 1541907714149
46, -9886.53, 13288.13, 187500.00, 187500.00, -187500.02, -187500.02, -187500.02, -187500.02, 0.000, 0.000, 0.000, 22:41:54.149, 1541907714149
47, -9852.74, 13590.06, 187500.00, 187500.00, -187500.02, -187500.02, -187500.02, -187500.02, 0.000, 0.000, 0.000, 22:41:54.149, 1541907714149
48, -10075.45, 13404.07, 187500.00, 187500.00, -187500.02, -187500.02, -187500.02, -187500.02, 0.000, 0.000, 0.000, 22:41:54.149, 1541907714149
49, -10161.62, 13099.93, 187500.00, 187500.00, -187500.02, -187500.02, -187500.02, -187500.02, 0.000, 0.000, 0.000, 22:41:54.149, 1541907714149
50, -9951.91, 13168.15, 187500.00, 187500.00, -187500.02, -187500.02, -187500.02, -187500.02, 0.000, 0.000, 0.000, 22:41:54.149, 1541907714149
51, -9847.11, 13555.01, 187500.00, 187500.00, -187500.02, -187500.02, -187500.02, -187500.02, 0.000, 0.000, 0.000, 22:41:54.149, 1541907714149
52, -10065.82, 13441.65, 187500.00, 187500.00, -187500.02, -187500.02, -187500.02, -187500.02, 0.000, 0.000, 0.000, 22:41:54.149, 1541907714149
53, -10184.15, 13145.26, 187500.00, 187500.00, -187500.02, -187500.02, -187500.02, -187500.02, 0.000, 0.000, 0.000, 22:41:54.151, 1541907714151
54, -10034.21, 13097.96, 187500.00, 187500.00, -187500.02, -187500.02, -187500.02, -187500.02, 0.000, 0.000, 0.000, 22:41:54.151, 1541907714151
55, -9851.67, 13524.08, 187500.00, 187500.00, -187500.02, -187500.02, -187500.02, -187500.02, 0.114, 0.802, 0.586, 22:41:54.151, 1541907714151
56, -10018.19, 13500.54, 187500.00, 187500.00, -187500.02, -187500.02, -187500.02, -187500.02, 0.000, 0.000, 0.000, 22:41:54.151, 1541907714151
57, -10151.49, 13195.08, 187500.00, 187500.00, -187500.02, -187500.02, -187500.02, -187500.02, 0.000, 0.000, 0.000, 22:41:54.152, 1541907714152
58, -10075.90, 13054.22, 187500.00, 187500.00, -187500.02, -187500.02, -187500.02, -187500.02, 0.000, 0.000, 0.000, 22:41:54.152, 1541907714152
59, -9831.97, 13478.41, 187500.00, 187500.00, -187500.02, -187500.02, -187500.02, -187500.02, 0.000, 0.000, 0.000, 22:41:54.152, 1541907714152
60, -9972.70, 13525.11, 187500.00, 187500.00, -187500.02, -187500.02, -187500.02, -187500.02, 0.000, 0.000, 0.000, 22:41:54.152, 1541907714152
61, -10149.57, 13254.09, 187500.00, 187500.00, -187500.02, -187500.02, -187500.02, -187500.02, 0.000, 0.000, 0.000, 22:41:54.152, 1541907714152
62, -10131.22, 13017.28, 187500.00, 187500.00, -187500.02, -187500.02, -187500.02, -187500.02, 0.000, 0.000, 0.000, 22:41:54.153, 1541907714153
63, -9852.83, 13382.57, 187500.00, 187500.00, -187500.02, -187500.02, -187500.02, -187500.02, 0.000, 0.000, 0.000, 22:41:54.153, 1541907714153
64, -9929.58, 13551.28, 187500.00, 187500.00, -187500.02, -187500.02, -187500.02, -187500.02, 0.102, 0.792, 0.574, 22:41:54.153, 1541907714153
65, -10107.19, 13324.61, 187500.00, 187500.00, -187500.02, -187500.02, -187500.02, -187500.02, 0.000, 0.000, 0.000, 22:41:54.153, 1541907714153
66, -10148.23, 13032.12, 187500.00, 187500.00, -187500.02, -187500.02, -187500.02, -187500.02, 0.000, 0.000, 0.000, 22:41:54.153, 1541907714153
67, -9874.58, 13318.42, 187500.00, 187500.00, -187500.02, -187500.02, -187500.02, -187500.02, 0.000, 0.000, 0.000, 22:41:54.153, 1541907714153
68, -9859.29, 13585.68, 187500.00, 187500.00, -187500.02, -187500.02, -187500.02, -187500.02, 0.000, 0.000, 0.000, 22:41:54.153, 1541907714153
69, -10053.17, 13395.69, 187500.00, 187500.00, -187500.02, -187500.02, -187500.02, -187500.02, 0.000, 0.000, 0.000, 22:41:54.153, 1541907714153
70, -10155.67, 13133.10, 187500.00, 187500.00, -187500.02, -187500.02, -187500.02, -187500.02, 0.000, 0.000, 0.000, 22:41:54.153, 1541907714153
71, -9904.64, 13306.69, 187500.00, 187500.00, -187500.02, -187500.02, -187500.02, -187500.02, 0.000, 0.000, 0.000, 22:41:54.153, 1541907714153
72, -9818.61, 13667.15, 187500.00, 187500.00, -187500.02, -187500.02, -187500.02, -187500.02, 0.000, 0.000, 0.000, 22:41:54.153, 1541907714153
73, -10040.05, 13489.19, 187500.00, 187500.00, -187500.02, -187500.02, -187500.02, -187500.02, 0.000, 0.000, 0.000, 22:41:54.153, 1541907714153
74, -10135.80, 13188.18, 187500.00, 187500.00, -187500.02, -187500.02, -187500.02, -187500.02, 0.096, 0.784, 0.560, 22:41:54.153, 1541907714153
75, -9926.10, 13238.65, 187500.00, 187500.00, -187500.02, -187500.02, -187500.02, -187500.02, 0.000, 0.000, 0.000, 22:41:54.154, 1541907714154
76, -9759.26, 13655.87, 187500.00, 187500.00, -187500.02, -187500.02, -187500.02, -187500.02, 0.000, 0.000, 0.000, 22:41:54.154, 1541907714154
77, -9962.11, 13570.97, 187500.00, 187500.00, -187500.02, -187500.02, -187500.02, -187500.02, 0.000, 0.000, 0.000, 22:41:54.154, 1541907714154
78, -10120.53, 13270.70, 187500.00, 187500.00, -187500.02, -187500.02, -187500.02, -187500.02, 0.000, 0.000, 0.000, 22:41:54.154, 1541907714154
79, -9988.70, 13183.57, 187500.00, 187500.00, -187500.02, -187500.02, -187500.02, -187500.02, 0.000, 0.000, 0.000, 22:41:54.154, 1541907714154
80, -9753.81, 13642.59, 187500.00, 187500.00, -187500.02, -187500.02, -187500.02, -187500.02, 0.000, 0.000, 0.000, 22:41:54.154, 1541907714154
81, -9927.17, 13607.47, 187500.00, 187500.00, -187500.02, -187500.02, -187500.02, -187500.02, 0.000, 0.000, 0.000, 22:41:54.154, 1541907714154
82, -10078.40, 13322.29, 187500.00, 187500.00, -187500.02, -187500.02, -187500.02, -187500.02, 0.000, 0.000, 0.000, 22:41:54.155, 1541907714155
83, -10051.11, 13112.63, 187500.00, 187500.00, -187500.02, -187500.02, -187500.02, -187500.02, 0.000, 0.000, 0.000, 22:41:54.155, 1541907714155
84, -9776.29, 13535.59, 187500.00, 187500.00, -187500.02, -187500.02, -187500.02, -187500.02, 0.088, 0.816, 0.548, 22:41:54.155, 1541907714155
85, -9852.22, 13615.32, 187500.00, 187500.00, -187500.02, -187500.02, -187500.02, -187500.02, 0.000, 0.000, 0.000, 22:41:54.155, 1541907714155
86, -10063.65, 13334.36, 187500.00, 187500.00, -187500.02, -187500.02, -187500.02, -187500.02, 0.000, 0.000, 0.000, 22:41:54.155, 1541907714155
87, -10056.81, 13114.21, 187500.00, 187500.00, -187500.02, -187500.02, -187500.02, -187500.02, 0.000, 0.000, 0.000, 22:41:54.155, 1541907714155
88, -9759.08, 13497.55, 187500.00, 187500.00, -187500.02, -187500.02, -187500.02, -187500.02, 0.000, 0.000, 0.000, 22:41:54.155, 1541907714155
89, -9857.10, 13664.96, 187500.00, 187500.00, -187500.02, -187500.02, -187500.02, -187500.02, 0.000, 0.000, 0.000, 22:41:54.155, 1541907714155
90, -10098.65, 13371.95, 187500.00, 187500.00, -187500.02, -187500.02, -187500.02, -187500.02, 0.000, 0.000, 0.000, 22:41:54.155, 1541907714155
91, -10130.26, 13065.89, 187500.00, 187500.00, -187500.02, -187500.02, -187500.02, -187500.02, 0.000, 0.000, 0.000, 22:41:54.156, 1541907714156
92, -9869.21, 13313.84, 187500.00, 187500.00, -187500.02, -187500.02, -187500.02, -187500.02, 0.000, 0.000, 0.000, 22:41:54.156, 1541907714156
93, -9871.29, 13618.07, 187500.00, 187500.00, -187500.02, -187500.02, -187500.02, -187500.02, 0.000, 0.000, 0.000, 22:41:54.156, 1541907714156
94, -10089.46, 13415.54, 187500.00, 187500.00, -187500.02, -187500.02, -187500.02, -187500.02, 0.098, 0.810, 0.542, 22:41:54.165, 1541907714165
95, -10147.07, 13112.45, 187500.00, 187500.00, -187500.02, -187500.02, -187500.02, -187500.02, 0.000, 0.000, 0.000, 22:41:54.166, 1541907714166
96, -9920.20, 13256.82, 187500.00, 187500.00, -187500.02, -187500.02, -187500.02, -187500.02, 0.000, 0.000, 0.000, 22:41:54.168, 1541907714168
97, -9827.66, 13630.83, 187500.00, 187500.00, -187500.02, -187500.02, -187500.02, -187500.02, 0.000, 0.000, 0.000, 22:41:54.169, 1541907714169
98, -10045.14, 13490.48, 187500.00, 187500.00, -187500.02, -187500.02, -187500.02, -187500.02, 0.000, 0.000, 0.000, 22:41:54.169, 1541907714169
99, -10178.47, 13135.43, 187500.00, 187500.00, -187500.02, -187500.02, -187500.02, -187500.02, 0.000, 0.000, 0.000, 22:41:54.170, 1541907714170
100, -9980.99, 13088.38, 187500.00, 187500.00, -187500.02, -187500.02, -187500.02, -187500.02, 0.000, 0.000, 0.000, 22:41:54.170, 1541907714170
101, -9809.46, 13499.65, 187500.00, 187500.00, -187500.02, -187500.02, -187500.02, -187500.02, 0.000, 0.000, 0.000, 22:41:54.170, 1541907714170
102, -10010.52, 13417.77, 187500.00, 187500.00, -187500.02, -187500.02, -187500.02, -187500.02, 0.000, 0.000, 0.000, 22:41:54.171, 1541907714171
103, -10141.86, 13132.30, 187500.00, 187500.00, -187500.02, -187500.02, -187500.02, -187500.02, 0.118, 0.844, 0.560, 22:41:54.171, 1541907714171
104, -10043.96, 13030.37, 187500.00, 187500.00, -187500.02, -187500.02, -187500.02, -187500.02, 0.000, 0.000, 0.000, 22:41:54.171, 1541907714171
105, -9828.08, 13460.47, 187500.00, 187500.00, -187500.02, -187500.02, -187500.02, -187500.02, 0.000, 0.000, 0.000, 22:41:54.631, 1541907714631
106, -10004.26, 13490.91, 187500.00, 187500.00, -187500.02, -187500.02, -187500.02, -187500.02, 0.000, 0.000, 0.000, 22:41:54.632, 1541907714632
107, -10155.67, 13235.58, 187500.00, 187500.00, -187500.02, -187500.02, -187500.02, -187500.02, 0.000, 0.000, 0.000, 22:41:54.633, 1541907714633
108, -10094.96, 13036.16, 187500.00, 187500.00, -187500.02, -187500.02, -187500.02, -187500.02, 0.000, 0.000, 0.000, 22:41:54.635, 1541907714635
109, -9857.25, 13427.79, 187500.00, 187500.00, -187500.02, -187500.02, -187500.02, -187500.02, 0.000, 0.000, 0.000, 22:41:54.635, 1541907714635
110, -9976.92, 13550.10, 187500.00, 187500.00, -187500.02, -187500.02, -187500.02, -187500.02, 0.000, 0.000, 0.000, 22:41:54.636, 1541907714636
111, -10136.69, 13298.97, 187500.00, 187500.00, -187500.02, -187500.02, -187500.02, -187500.02, 0.000, 0.000, 0.000, 22:41:54.636, 1541907714636
112, -10144.36, 13056.57, 187500.00, 187500.00, -187500.02, -187500.02, -187500.02, -187500.02, 0.000, 0.000, 0.000, 22:41:54.636, 1541907714636
113, -9868.41, 13396.25, 187500.00, 187500.00, -187500.02, -187500.02, -187500.02, -187500.02, 0.104, 0.848, 0.568, 22:41:54.636, 1541907714636
114, -9914.72, 13596.88, 187500.00, 187500.00, -187500.02, -187500.02, -187500.02, -187500.02, 0.000, 0.000, 0.000, 22:41:54.636, 1541907714636
115, -10135.55, 13379.82, 187500.00, 187500.00, -187500.02, -187500.02, -187500.02, -187500.02, 0.000, 0.000, 0.000, 22:41:54.637, 1541907714637
116, -10198.59, 13087.30, 187500.00, 187500.00, -187500.02, -187500.02, -187500.02, -187500.02, 0.000, 0.000, 0.000, 22:41:54.637, 1541907714637
117, -9937.00, 13312.21, 187500.00, 187500.00, -187500.02, -187500.02, -187500.02, -187500.02, 0.000, 0.000, 0.000, 22:41:54.637, 1541907714637
118, -9898.94, 13612.91, 187500.00, 187500.00, -187500.02, -187500.02, -187500.02, -187500.02, 0.000, 0.000, 0.000, 22:41:54.637, 1541907714637
119, -10082.47, 13412.92, 187500.00, 187500.00, -187500.02, -187500.02, -187500.02, -187500.02, 0.000, 0.000, 0.000, 22:41:54.637, 1541907714637
120, -10210.14, 13083.57, 187500.00, 187500.00, -187500.02, -187500.02, -187500.02, -187500.02, 0.000, 0.000, 0.000, 22:41:54.637, 1541907714637
121, -9988.14, 13173.89, 187500.00, 187500.00, -187500.02, -187500.02, -187500.02, -187500.02, 0.000, 0.000, 0.000, 22:41:54.637, 1541907714637
122, -9867.24, 13531.16, 187500.00, 187500.00, -187500.02, -187500.02, -187500.02, -187500.02, 0.000, 0.000, 0.000, 22:41:54.637, 1541907714637
123, -10091.66, 13411.02, 187500.00, 187500.00, -187500.02, -187500.02, -187500.02, -187500.02, 0.080, 0.812, 0.584, 22:41:54.637, 1541907714637
124, -10214.86, 13120.23, 187500.00, 187500.00, -187500.02, -187500.02, -187500.02, -187500.02, 0.000, 0.000, 0.000, 22:41:54.637, 1541907714637
125, -10084.17, 13073.62, 187500.00, 187500.00, -187500.02, -187500.02, -187500.02, -187500.02, 0.000, 0.000, 0.000, 22:41:54.637, 1541907714637
126, -9919.28, 13488.23, 187500.00, 187500.00, -187500.02, -187500.02, -187500.02, -187500.02, 0.000, 0.000, 0.000, 22:41:54.638, 1541907714638
127, -10084.35, 13423.25, 187500.00, 187500.00, -187500.02, -187500.02, -187500.02, -187500.02, 0.000, 0.000, 0.000, 22:41:54.638, 1541907714638
128, -10221.09, 13135.14, 187500.00, 187500.00, -187500.02, -187500.02, -187500.02, -187500.02, 0.000, 0.000, 0.000, 22:41:54.638, 1541907714638
129, -10105.94, 13021.83, 187500.00, 187500.00, -187500.02, -187500.02, -187500.02, -187500.02, 0.000, 0.000, 0.000, 22:41:54.638, 1541907714638
130, -9842.50, 13431.14, 187500.00, 187500.00, -187500.02, -187500.02, -187500.02, -187500.02, 0.000, 0.000, 0.000, 22:41:54.638, 1541907714638
131, -9992.41, 13444.08, 187500.00, 187500.00, -187500.02, -187500.02, -187500.02, -187500.02, 0.000, 0.000, 0.000, 22:41:54.638, 1541907714638
132, -10167.18, 13159.70, 187500.00, 187500.00, -187500.02, -187500.02, -187500.02, -187500.02, 0.000, 0.000, 0.000, 22:41:54.638, 1541907714638
133, -10140.52, 12951.14, 187500.00, 187500.00, -187500.02, -187500.02, -187500.02, -187500.02, 0.074, 0.788, 0.580, 22:41:54.638, 1541907714638
134, -9888.70, 13342.61, 187500.00, 187500.00, -187500.02, -187500.02, -187500.02, -187500.02, 0.000, 0.000, 0.000, 22:41:54.638, 1541907714638
135, -9998.14, 13468.94, 187500.00, 187500.00, -187500.02, -187500.02, -187500.02, -187500.02, 0.000, 0.000, 0.000, 22:41:54.638, 1541907714638
136, -10153.97, 13230.51, 187500.00, 187500.00, -187500.02, -187500.02, -187500.02, -187500.02, 0.000, 0.000, 0.000, 22:41:54.638, 1541907714638
137, -10161.57, 12963.63, 187500.00, 187500.00, -187500.02, -187500.02, -187500.02, -187500.02, 0.000, 0.000, 0.000, 22:41:54.639, 1541907714639
138, -9885.93, 13267.10, 187500.00, 187500.00, -187500.02, -187500.02, -187500.02, -187500.02, 0.000, 0.000, 0.000, 22:41:54.639, 1541907714639
139, -9929.96, 13492.05, 187500.00, 187500.00, -187500.02, -187500.02, -187500.02, -187500.02, 0.000, 0.000, 0.000, 22:41:54.639, 1541907714639
140, -10142.13, 13273.99, 187500.00, 187500.00, -187500.02, -187500.02, -187500.02, -187500.02, 0.000, 0.000, 0.000, 22:41:54.639, 1541907714639
141, -10175.59, 12975.48, 187500.00, 187500.00, -187500.02, -187500.02, -187500.02, -187500.02, 0.000, 0.000, 0.000, 22:41:54.639, 1541907714639
142, -9888.48, 13163.28, 187500.00, 187500.00, -187500.02, -187500.02, -187500.02, -187500.02, 0.000, 0.000, 0.000, 22:41:54.639, 1541907714639
143, -9883.16, 13475.20, 187500.00, 187500.00, -187500.02, -187500.02, -187500.02, -187500.02, 0.092, 0.798, 0.566, 22:41:54.639, 1541907714639
144, -10130.53, 13301.39, 187500.00, 187500.00, -187500.02, -187500.02, -187500.02, -187500.02, 0.000, 0.000, 0.000, 22:41:54.640, 1541907714640
145, -10219.13, 13004.04, 187500.00, 187500.00, -187500.02, -187500.02, -187500.02, -187500.02, 0.000, 0.000, 0.000, 22:41:54.641, 1541907714641
146, -10007.81, 13064.08, 187500.00, 187500.00, -187500.02, -187500.02, -187500.02, -187500.02, 0.000, 0.000, 0.000, 22:41:54.641, 1541907714641
147, -9899.43, 13454.88, 187500.00, 187500.00, -187500.02, -187500.02, -187500.02, -187500.02, 0.000, 0.000, 0.000, 22:41:54.642, 1541907714642
148, -10096.82, 13346.85, 187500.00, 187500.00, -187500.02, -187500.02, -187500.02, -187500.02, 0.000, 0.000, 0.000, 22:41:54.643, 1541907714643
149, -10214.01, 13050.31, 187500.00, 187500.00, -187500.02, -187500.02, -187500.02, -187500.02, 0.000, 0.000, 0.000, 22:41:54.644, 1541907714644
150, -10039.53, 13009.32, 187500.00, 187500.00, -187500.02, -187500.02, -187500.02, -187500.02, 0.000, 0.000, 0.000, 22:41:54.644, 1541907714644
151, -9843.53, 13449.31, 187500.00, 187500.00, -187500.02, -187500.02, -187500.02, -187500.02, 0.000, 0.000, 0.000, 22:41:54.644, 1541907714644
152, -10040.54, 13411.63, 187500.00, 187500.00, -187500.02, -187500.02, -187500.02, -187500.02, 0.108, 0.806, 0.552, 22:41:54.645, 1541907714645
153, -10170.76, 13124.18, 187500.00, 187500.00, -187500.02, -187500.02, -187500.02, -187500.02, 0.000, 0.000, 0.000, 22:41:54.645, 1541907714645
154, -10038.97, 12968.06, 187500.00, 187500.00, -187500.02, -187500.02, -187500.02, -187500.02, 0.000, 0.000, 0.000, 22:41:54.645, 1541907714645
155, -9800.43, 13396.85, 187500.00, 187500.00, -187500.02, -187500.02, -187500.02, -187500.02, 0.000, 0.000, 0.000, 22:41:54.646, 1541907714646
156, -9969.93, 13451.46, 187500.00, 187500.00, -187500.02, -187500.02, -187500.02, -187500.02, 0.000, 0.000, 0.000, 22:41:54.647, 1541907714647
157, -10141.34, 13166.67, 187500.00, 187500.00, -187500.02, -187500.02, -187500.02, -187500.02, 0.000, 0.000, 0.000, 22:41:54.647, 1541907714647
158, -10135.71, 12933.86, 187500.00, 187500.00, -187500.02, -187500.02, -187500.02, -187500.02, 0.000, 0.000, 0.000, 22:41:54.647, 1541907714647
159, -9865.21, 13306.98, 187500.00, 187500.00, -187500.02, -187500.02, -187500.02, -187500.02, 0.000, 0.000, 0.000, 22:41:54.647, 1541907714647
160, -9945.83, 13484.67, 187500.00, 187500.00, -187500.02, -187500.02, -187500.02, -187500.02, 0.000, 0.000, 0.000, 22:41:54.647, 1541907714647
161, -10136.38, 13235.50, 187500.00, 187500.00, -187500.02, -187500.02, -187500.02, -187500.02, 0.000, 0.000, 0.000, 22:41:54.647, 1541907714647
162, -10151.56, 12935.74, 187500.00, 187500.00, -187500.02, -187500.02, -187500.02, -187500.02, 0.112, 0.812, 0.538, 22:41:54.647, 1541907714647
163, -9873.97, 13221.95, 187500.00, 187500.00, -187500.02, -187500.02, -187500.02, -187500.02, 0.000, 0.000, 0.000, 22:41:54.647, 1541907714647
164, -9903.66, 13483.00, 187500.00, 187500.00, -187500.02, -187500.02, -187500.02, -187500.02, 0.000, 0.000, 0.000, 22:41:54.647, 1541907714647
165, -10078.67, 13263.93, 187500.00, 187500.00, -187500.02, -187500.02, -187500.02, -187500.02, 0.000, 0.000, 0.000, 22:41:54.647, 1541907714647
166, -10147.45, 12960.90, 187500.00, 187500.00, -187500.02, -187500.02, -187500.02, -187500.02, 0.000, 0.000, 0.000, 22:41:54.648, 1541907714648
167, -9940.31, 13151.90, 187500.00, 187500.00, -187500.02, -187500.02, -187500.02, -187500.02, 0.000, 0.000, 0.000, 22:41:54.648, 1541907714648
168, -9880.25, 13500.43, 187500.00, 187500.00, -187500.02, -187500.02, -187500.02, -187500.02, 0.000, 0.000, 0.000, 22:41:54.648, 1541907714648
169, -10079.12, 13333.28, 187500.00, 187500.00, -187500.02, -187500.02, -187500.02, -187500.02, 0.000, 0.000, 0.000, 22:41:54.648, 1541907714648
170, -10167.34, 13042.40, 187500.00, 187500.00, -187500.02, -187500.02, -187500.02, -187500.02, 0.000, 0.000, 0.000, 22:41:54.648, 1541907714648
171, -9985.11, 13074.41, 187500.00, 187500.00, -187500.02, -187500.02, -187500.02, -187500.02, 0.000, 0.000, 0.000, 22:41:54.648, 1541907714648
172, -9869.08, 13473.65, 187500.00, 187500.00, -187500.02, -187500.02, -187500.02, -187500.02, 0.124, 0.828, 0.552, 22:41:54.648, 1541907714648
173, -10042.01, 13364.22, 187500.00, 187500.00, -187500.02, -187500.02, -187500.02, -187500.02, 0.000, 0.000, 0.000, 22:41:54.648, 1541907714648
174, -10158.53, 13043.63, 187500.00, 187500.00, -187500.02, -187500.02, -187500.02, -187500.02, 0.000, 0.000, 0.000, 22:41:54.648, 1541907714648
175, -10039.51, 12972.44, 187500.00, 187500.00, -187500.02, -187500.02, -187500.02, -187500.02, 0.000, 0.000, 0.000, 22:41:54.648, 1541907714648
176, -9826.25, 13411.69, 187500.00, 187500.00, -187500.02, -187500.02, -187500.02, -187500.02, 0.000, 0.000, 0.000, 22:41:54.648, 1541907714648
177, -9994.90, 13361.38, 187500.00, 187500.00, -187500.02, -187500.02, -187500.02, -187500.02, 0.000, 0.000, 0.000, 22:41:54.648, 1541907714648
178, -10176.08, 13077.31, 187500.00, 187500.00, -187500.02, -187500.02, -187500.02, -187500.02, 0.000, 0.000, 0.000, 22:41:54.648, 1541907714648
179, -10117.99, 12912.40, 187500.00, 187500.00, -187500.02, -187500.02, -187500.02, -187500.02, 0.000, 0.000, 0.000, 22:41:54.649, 1541907714649
180, -9870.80, 13330.58, 187500.00, 187500.00, -187500.02, -187500.02, -187500.02, -187500.02, 0.000, 0.000, 0.000, 22:41:54.649, 1541907714649
181, -10001.15, 13404.70, 187500.00, 187500.00, -187500.02, -187500.02, -187500.02, -187500.02, 0.000, 0.000, 0.000, 22:41:54.649, 1541907714649
182, -10149.08, 13156.97, 187500.00, 187500.00, -187500.02, -187500.02, -187500.02, -187500.02, 0.138, 0.836, 0.574, 22:41:54.649, 1541907714649
183, -10154.51, 12924.58, 187500.00, 187500.00, -187500.02, -187500.02, -187500.02, -187500.02, 0.000, 0.000, 0.000, 22:41:54.649, 1541907714649
184, -9900.35, 13281.61, 187500.00, 187500.00, -187500.02, -187500.02, -187500.02, -187500.02, 0.000, 0.000, 0.000, 22:41:54.649, 1541907714649
185, -9986.11, 13422.87, 187500.00, 187500.00, -187500.02, -187500.02, -187500.02, -187500.02, 0.000, 0.000, 0.000, 22:41:54.649, 1541907714649
186, -10137.34, 13188.47, 187500.00, 187500.00, -187500.02, -187500.02, -187500.02, -187500.02, 0.000, 0.000, 0.000, 22:41:54.649, 1541907714649
187, -10189.18, 12925.25, 187500.00, 187500.00, -187500.02, -187500.02, -187500.02, -187500.02, 0.000, 0.000, 0.000, 22:41:54.649, 1541907714649
188, -9931.57, 13181.81, 187500.00, 187500.00, -187500.02, -187500.02, -187500.02, -187500.02, 0.000, 0.000, 0.000, 22:41:54.649, 1541907714649
189, -9939.19, 13425.93, 187500.00, 187500.00, -187500.02, -187500.02, -187500.02, -187500.02, 0.000, 0.000, 0.000, 22:41:54.649, 1541907714649
190, -10086.74, 13253.02, 187500.00, 187500.00, -187500.02, -187500.02, -187500.02, -187500.02, 0.000, 0.000, 0.000, 22:41:54.649, 1541907714649
191, -10187.90, 12957.62, 187500.00, 187500.00, -187500.02, -187500.02, -187500.02, -187500.02, 0.122, 0.804, 0.600, 22:41:54.649, 1541907714649
192, -10008.84, 13079.77, 187500.00, 187500.00, -187500.02, -187500.02, -187500.02, -187500.02, 0.000, 0.000, 0.000, 22:41:54.650, 1541907714650
193, -9919.46, 13448.66, 187500.00, 187500.00, -187500.02, -187500.02, -187500.02, -187500.02, 0.000, 0.000, 0.000, 22:41:54.651, 1541907714651
194, -10098.67, 13337.17, 187500.00, 187500.00, -187500.02, -187500.02, -187500.02, -187500.02, 0.000, 0.000, 0.000, 22:41:54.653, 1541907714653
195, -10180.57, 13007.40, 187500.00, 187500.00, -187500.02, -187500.02, -187500.02, -187500.02, 0.000, 0.000, 0.000, 22:41:54.654, 1541907714654
196, -10007.39, 13008.09, 187500.00, 187500.00, -187500.02, -187500.02, -187500.02, -187500.02, 0.000, 0.000, 0.000, 22:41:54.654, 1541907714654
197, -9895.83, 13437.56, 187500.00, 187500.00, -187500.02, -187500.02, -187500.02, -187500.02, 0.000, 0.000, 0.000, 22:41:54.659, 1541907714659
198, -10093.53, 13359.32, 187500.00, 187500.00, -187500.02, -187500.02, -187500.02, -187500.02, 0.000, 0.000, 0.000, 22:41:54.660, 1541907714660
199, -10246.60, 13067.52, 187500.00, 187500.00, -187500.02, -187500.02, -187500.02, -187500.02, 0.000, 0.000, 0.000, 22:41:54.661, 1541907714661
200, -10106.50, 12981.69, 187500.00, 187500.00, -187500.02, -187500.02, -187500.02, -187500.02, 0.000, 0.000, 0.000, 22:41:54.661, 1541907714661
201, -9892.75, 13454.81, 187500.00, 187500.00, -187500.02, -187500.02, -187500.02, -187500.02, 0.098, 0.786, 0.598, 22:41:54.661, 1541907714661
202, -10049.77, 13479.71, 187500.00, 187500.00, -187500.02, -187500.02, -187500.02, -187500.02, 0.000, 0.000, 0.000, 22:41:54.661, 1541907714661
203, -10174.96, 13204.20, 187500.00, 187500.00, -187500.02, -187500.02, -187500.02, -187500.02, 0.000, 0.000, 0.000, 22:41:54.662, 1541907714662
204, -10117.16, 12989.07, 187500.00, 187500.00, -187500.02, -187500.02, -187500.02, -187500.02, 0.000, 0.000, 0.000, 22:41:54.662, 1541907714662
205, -9868.67, 13395.27, 187500.00, 187500.00, -187500.02, -187500.02, -187500.02, -187500.02, 0.000, 0.000, 0.000, 22:41:54.662, 1541907714662
206, -9994.47, 13506.40, 187500.00, 187500.00, -187500.02, -187500.02, -187500.02, -187500.02, 0.000, 0.000, 0.000, 22:41:54.663, 1541907714663
207, -10142.26, 13270.95, 187500.00, 187500.00, -187500.02, -187500.02, -187500.02, -187500.02, 0.000, 0.000, 0.000, 22:41:54.664, 1541907714664
208, -10168.39, 12955.99, 187500.00, 187500.00, -187500.02, -187500.02, -187500.02, -187500.02, 0.000, 0.000, 0.000, 22:41:54.665, 1541907714665
209, -9903.97, 13277.00, 187500.00, 187500.00, -187500.02, -187500.02, -187500.02, -187500.02, 0.000, 0.000, 0.000, 22:41:54.665, 1541907714665
210, -9957.48, 13479.17, 187500.00, 187500.00, -187500.02, -187500.02, -187500.02, -187500.02, 0.000, 0.000, 0.000, 22:41:54.665, 1541907714665
211, -10163.03, 13261.27, 187500.00, 187500.00, -187500.02, -187500.02, -187500.02, -187500.02, 0.080, 0.788, 0.598, 22:41:54.665, 1541907714665
212, -10223.08, 13007.66, 187500.00, 187500.00, -187500.02, -187500.02, -187500.02, -187500.02, 0.000, 0.000, 0.000, 22:41:54.665, 1541907714665
213, -9930.19, 13262.88, 187500.00, 187500.00, -187500.02, -187500.02, -187500.02, -187500.02, 0.000, 0.000, 0.000, 22:41:54.665, 1541907714665
214, -9905.76, 13538.05, 187500.00, 187500.00, -187500.02, -187500.02, -187500.02, -187500.02, 0.000, 0.000, 0.000, 22:41:54.665, 1541907714665
215, -10083.01, 13334.42, 187500.00, 187500.00, -187500.02, -187500.02, -187500.02, -187500.02, 0.000, 0.000, 0.000, 22:41:54.665, 1541907714665
216, -10164.99, 13040.41, 187500.00, 187500.00, -187500.02, -187500.02, -187500.02, -187500.02, 0.000, 0.000, 0.000, 22:41:54.665, 1541907714665
217, -9939.95, 13183.97, 187500.00, 187500.00, -187500.02, -187500.02, -187500.02, -187500.02, 0.000, 0.000, 0.000, 22:41:54.665, 1541907714665
218, -9881.37, 13575.71, 187500.00, 187500.00, -187500.02, -187500.02, -187500.02, -187500.02, 0.000, 0.000, 0.000, 22:41:54.666, 1541907714666
219, -10088.93, 13449.56, 187500.00, 187500.00, -187500.02, -187500.02, -187500.02, -187500.02, 0.000, 0.000, 0.000, 22:41:54.666, 1541907714666
220, -10188.46, 13136.50, 187500.00, 187500.00, -187500.02, -187500.02, -187500.02, -187500.02, 0.000, 0.000, 0.000, 22:41:54.666, 1541907714666
221, -9988.23, 13132.39, 187500.00, 187500.00, -187500.02, -187500.02, -187500.02, -187500.02, 0.086, 0.790, 0.578, 22:41:54.666, 1541907714666
222, -9817.65, 13563.02, 187500.00, 187500.00, -187500.02, -187500.02, -187500.02, -187500.02, 0.000, 0.000, 0.000, 22:41:54.666, 1541907714666
223, -10000.04, 13491.31, 187500.00, 187500.00, -187500.02, -187500.02, -187500.02, -187500.02, 0.000, 0.000, 0.000, 22:41:54.666, 1541907714666
224, -10129.45, 13201.14, 187500.00, 187500.00, -187500.02, -187500.02, -187500.02, -187500.02, 0.000, 0.000, 0.000, 22:41:54.666, 1541907714666
225, -10030.01, 13053.82, 187500.00, 187500.00, -187500.02, -187500.02, -187500.02, -187500.02, 0.000, 0.000, 0.000, 22:41:54.894, 1541907714894
226, -9794.18, 13501.86, 187500.00, 187500.00, -187500.02, -187500.02, -187500.02, -187500.02, 0.000, 0.000, 0.000, 22:41:54.894, 1541907714894
227, -9961.75, 13511.81, 187500.00, 187500.00, -187500.02, -187500.02, -187500.02, -187500.02, 0.000, 0.000, 0.000, 22:41:54.895, 1541907714895
228, -10079.07, 13253.65, 187500.00, 187500.00, -187500.02, -187500.02, -187500.02, -187500.02, 0.000, 0.000, 0.000, 22:41:54.895, 1541907714895
229, -10046.30, 13050.98, 187500.00, 187500.00, -187500.02, -187500.02, -187500.02, -187500.02, 0.000, 0.000, 0.000, 22:41:54.896, 1541907714896
230, -9794.00, 13461.85, 187500.00, 187500.00, -187500.02, -187500.02, -187500.02, -187500.02, 0.000, 0.000, 0.000, 22:41:54.896, 1541907714896
231, -9923.66, 13548.49, 187500.00, 187500.00, -187500.02, -187500.02, -187500.02, -187500.02, 0.122, 0.810, 0.552, 22:41:54.896, 1541907714896
232, -10128.71, 13279.82, 187500.00, 187500.00, -187500.02, -187500.02, -187500.02, -187500.02, 0.000, 0.000, 0.000, 22:41:54.898, 1541907714898
233, -10116.78, 13006.73, 187500.00, 187500.00, -187500.02, -187500.02, -187500.02, -187500.02, 0.000, 0.000, 0.000, 22:41:54.899, 1541907714899
234, -9811.59, 13343.21, 187500.00, 187500.00, -187500.02, -187500.02, -187500.02, -187500.02, 0.000, 0.000, 0.000, 22:41:54.908, 1541907714908
235, -9852.51, 13572.72, 187500.00, 187500.00, -187500.02, -187500.02, -187500.02, -187500.02, 0.000, 0.000, 0.000, 22:41:54.909, 1541907714909
236, -10057.39, 13351.23, 187500.00, 187500.00, -187500.02, -187500.02, -187500.02, -187500.02, 0.000, 0.000, 0.000, 22:41:54.909, 1541907714909
237, -10107.12, 13062.56, 187500.00, 187500.00, -187500.02, -187500.02, -187500.02, -187500.02, 0.000, 0.000, 0.000, 22:41:54.909, 1541907714909
238, -9844.40, 13303.56, 187500.00, 187500.00, -187500.02, -187500.02, -187500.02, -187500.02, 0.000, 0.000, 0.000, 22:41:54.909, 1541907714909
239, -9823.59, 13618.45, 187500.00, 187500.00, -187500.02, -187500.02, -187500.02, -187500.02, 0.000, 0.000, 0.000, 22:41:54.909, 1541907714909
240, -10076.88, 13389.45, 187500.00, 187500.00, -187500.02, -187500.02, -187500.02, -187500.02, 0.142, 0.838, 0.538, 22:41:54.909, 1541907714909
241, -10174.56, 13079.32, 187500.00, 187500.00, -187500.02, -187500.02, -187500.02, -187500.02, 0.000, 0.000, 0.000, 22:41:54.910, 1541907714910
242, -9903.59, 13212.16, 187500.00, 187500.00, -187500.02, -187500.02, -187500.02, -187500.02, 0.000, 0.000, 0.000, 22:41:54.910, 1541907714910
243, -9798.54, 13616.24, 187500.00, 187500.00, -187500.02, -187500.02, -187500.02, -187500.02, 0.000, 0.000, 0.000, 22:41:54.910, 1541907714910
244, -10014.01, 13484.56, 187500.00, 187500.00, -187500.02, -187500.02, -187500.02, -187500.02, 0.000, 0.000, 0.000, 22:41:54.910, 1541907714910
245, -10144.18, 13174.41, 187500.00, 187500.00, -187500.02, -187500.02, -187500.02, -187500.02, 0.000, 0.000, 0.000, 22:41:54.910, 1541907714910
246, -9968.32, 13165.83, 187500.00, 187500.00, -187500.02, -187500.02, -187500.02, -187500.02, 0.000, 0.000, 0.000, 22:41:54.910, 1541907714910
247, -9754.55, 13609.78, 187500.00, 187500.00, -187500.02, -187500.02, -187500.02, -187500.02, 0.000, 0.000, 0.000, 22:41:54.911, 1541907714911
248, -9965.35, 13555.82, 187500.00, 187500.00, -187500.02, -187500.02, -187500.02, -187500.02, 0.000, 0.000, 0.000, 22:41:54.914, 1541907714914
249, -10112.76, 13249.73, 187500.00, 187500.00, -187500.02, -187500.02, -187500.02, -187500.02, 0.000, 0.000, 0.000, 22:41:54.915, 1541907714915
250, -9985.19, 13120.36, 187500.00, 187500.00, -187500.02, -187500.02, -187500.02, -187500.02, 0.152, 0.840, 0.558, 22:41:54.915, 1541907714915
251, -9773.88, 13542.76, 187500.00, 187500.00, -187500.02, -187500.02, -187500.02, -187500.02, 0.000, 0.000, 0.000, 22:41:54.915, 1541907714915
252, -9919.79, 13587.69, 187500.00, 187500.00, -187500.02, -187500.02, -187500.02, -187500.02, 0.000, 0.000, 0.000, 22:41:54.915, 1541907714915
253, -10115.17, 13288.09, 187500.00, 187500.00, -187500.02, -187500.02, -187500.02, -187500.02, 0.000, 0.000, 0.000, 22:41:54.915, 1541907714915
254, -10080.48, 13042.38, 187500.00, 187500.00, -187500.02, -187500.02, -187500.02, -187500.02, 0.000, 0.000, 0.000, 22:41:54.915, 1541907714915
255, -9813.62, 13430.78, 187500.00, 187500.00, -187500.02, -187500.02, -187500.02, -187500.02, 0.000, 0.000, 0.000, 22:41:54.915, 1541907714915
0, -9886.58, 13579.82, 187500.00, 187500.00, -187500.02, -187500.02, -187500.02, -187500.02, 0.000, 0.000, 0.000, 22:41:54.915, 1541907714915
1, -10075.43, 13329.98, 187500.00, 187500.00, -187500.02, -187500.02, -187500.02, -187500.02, 0.000, 0.000, 0.000, 22:41:54.915, 1541907714915
2, -10124.25, 13042.87, 187500.00, 187500.00, -187500.02, -187500.02, -187500.02, -187500.02, 0.000, 0.000, 0.000, 22:41:54.916, 1541907714916
3, -9849.59, 13355.48, 187500.00, 187500.00, -187500.02, -187500.02, -187500.02, -187500.02, 0.000, 0.000, 0.000, 22:41:54.916, 1541907714916
4, -9901.51, 13562.95, 187500.00, 187500.00, -187500.02, -187500.02, -187500.02, -187500.02, 0.134, 0.836, 0.590, 22:41:54.917, 1541907714917
5, -10103.77, 13366.19, 187500.00, 187500.00, -187500.02, -187500.02, -187500.02, -187500.02, 0.000, 0.000, 0.000, 22:41:54.918, 1541907714918
6, -10182.92, 13076.11, 187500.00, 187500.00, -187500.02, -187500.02, -187500.02, -187500.02, 0.000, 0.000, 0.000, 22:41:54.918, 1541907714918
7, -9937.25, 13267.28, 187500.00, 187500.00, -187500.02, -187500.02, -187500.02, -187500.02, 0.000, 0.000, 0.000, 22:41:54.918, 1541907714918
8, -9867.04, 13601.66, 187500.00, 187500.00, -187500.02, -187500.02, -187500.02, -187500.02, 0.000, 0.000, 0.000, 22:41:54.918, 1541907714918
9, -10086.69, 13416.34, 187500.00, 187500.00, -187500.02, -187500.02, -187500.02, -187500.02, 0.000, 0.000, 0.000, 22:41:54.918, 1541907714918
10, -10196.40, 13115.24, 187500.00, 187500.00, -187500.02, -187500.02, -187500.02, -187500.02, 0.000, 0.000, 0.000, 22:41:54.919, 1541907714919
11, -10005.65, 13174.72, 187500.00, 187500.00, -187500.02, -187500.02, -187500.02, -187500.02, 0.000, 0.000, 0.000, 22:41:54.919, 1541907714919
12, -9888.81, 13551.17, 187500.00, 187500.00, -187500.02, -187500.02, -187500.02, -187500.02, 0.000, 0.000, 0.000, 22:41:54.920, 1541907714920
13, -10083.90, 13431.41, 187500.00, 187500.00, -187500.02, -187500.02, -187500.02, -187500.02, 0.000, 0.000, 0.000, 22:41:54.921, 1541907714921
14, -10199.66, 13128.23, 187500.00, 187500.00, -187500.02, -187500.02, -187500.02, -187500.02, 0.108, 0.804, 0.608, 22:41:54.922, 1541907714922
15, -10032.65, 13076.40, 187500.00, 187500.00, -187500.02, -187500.02, -187500.02, -187500.02, 0.000, 0.000, 0.000, 22:41:54.923, 1541907714923
16, -9837.38, 13541.27, 187500.00, 187500.00, -187500.02, -187500.02, -187500.02, -187500.02, 0.000, 0.000, 0.000, 22:41:54.925, 1541907714925
17, -10025.20, 13513.62, 187500.00, 187500.00, -187500.02, -187500.02, -187500.02, -187500.02, 0.000, 0.000, 0.000, 22:41:54.925, 1541907714925
18, -10205.25, 13207.38, 187500.00, 187500.00, -187500.02, -187500.02, -187500.02, -187500.02, 0.000, 0.000, 0.000, 22:41:54.925, 1541907714925
19, -10108.93, 13046.02, 187500.00, 187500.00, -187500.02, -187500.02, -187500.02, -187500.02, 0.000, 0.000, 0.000, 22:41:54.926, 1541907714926
20, -9853.83, 13480.56, 187500.00, 187500.00, -187500.02, -187500.02, -187500.02, -187500.02, 0.000, 0.000, 0.000, 22:41:54.926, 1541907714926
21, -9998.74, 13546.07, 187500.00, 187500.00, -187500.02, -187500.02, -187500.02, -187500.02, 0.000, 0.000, 0.000, 22:41:54.926, 1541907714926
22, -10183.37, 13274.68, 187500.00, 187500.00, -187500.02, -187500.02, -187500.02, -187500.02, 0.000, 0.000, 0.000, 22:41:54.926, 1541907714926
23, -10158.64, 13031.25, 187500.00, 187500.00, -187500.02, -187500.02, -187500.02, -187500.02, 0.078, 0.776, 0.600, 22:41:54.926, 1541907714926
24, -9873.41, 13403.76, 187500.00, 187500.00, -187500.02, -187500.02, -187500.02, -187500.02, 0.000, 0.000, 0.000, 22:41:54.926, 1541907714926
25, -9979.43, 13564.58, 187500.00, 187500.00, -187500.02, -187500.02, -187500.02, -187500.02, 0.000, 0.000, 0.000, 22:41:54.927, 1541907714927
26, -10183.05, 13336.21, 187500.00, 187500.00, -187500.02, -187500.02, -187500.02, -187500.02, 0.000, 0.000, 0.000, 22:41:54.927, 1541907714927
27, -10197.22, 13032.23, 187500.00, 187500.00, -187500.02, -187500.02, -187500.02, -187500.02, 0.000, 0.000, 0.000, 22:41:54.927, 1541907714927
28, -9898.13, 13316.90, 187500.00, 187500.00, -187500.02, -187500.02, -187500.02, -187500.02, 0.000, 0.000, 0.000, 22:41:54.927, 1541907714927
29, -9927.44, 13554.68, 187500.00, 187500.00, -187500.02, -187500.02, -187500.02, -187500.02, 0.000, 0.000, 0.000, 22:41:54.927, 1541907714927
30, -10158.91, 13311.16, 187500.00, 187500.00, -187500.02, -187500.02, -187500.02, -187500.02, 0.000, 0.000, 0.000, 22:41:54.927, 1541907714927
31, -10243.76, 12999.06, 187500.00, 187500.00, -187500.02, -187500.02, -187500.02, -187500.02, 0.000, 0.000, 0.000, 22:41:54.928, 1541907714928
32, -9964.00, 13193.32, 187500.00, 187500.00, -187500.02, -187500.02, -187500.02, -187500.02, 0.000, 0.000, 0.000, 22:41:54.928, 1541907714928
33, -9906.54, 13539.70, 187500.00, 187500.00, -187500.02, -187500.02, -187500.02, -187500.02, 0.064, 0.778, 0.576, 22:41:54.928, 1541907714928
0, 0.00, 0.00, 0.00, 0.00, 0.00, 0.00, 0.00, 0.00, 0.000, 0.000, 0.000, 22:41:55.386, 1541907715386
1, -9578.42, 13469.65, 0.00, 187500.00, -187500.02, -187500.02, -187500.02, -187500.02, 0.000, 0.000, 0.000, 22:41:55.386, 1541907715386
2, -9502.87, 13816.08, 0.00, 187500.00, -187500.02, -187500.02, -187500.02, -187500.02, 0.000, 0.000, 0.000, 22:41:55.387, 1541907715387
3, -9730.52, 13698.29, 0.00, 187500.00, -187500.02, -187500.02, -187500.02, -187500.02, 0.000, 0.000, 0.000, 22:41:55.387, 1541907715387
4, -9940.36, 13355.48, 0.00, 187500.00, -187500.02, -187500.02, -187500.02, -187500.02, 0.092, 0.776, 0.542, 22:41:55.387, 1541907715387
5, -9883.61, 13187.80, 0.00, 187500.00, -187500.02, -187500.02, -187500.02, -187500.02, 0.000, 0.000, 0.000, 22:41:55.388, 1541907715388
6, -9668.00, 13608.32, 0.00, 187500.00, -187500.02, -187500.02, -187500.02, -187500.02, 0.000, 0.000, 0.000, 22:41:55.388, 1541907715388
7, -9849.54, 13605.31, 0.00, 187500.00, -187500.02, -187500.02, -187500.02, -187500.02, 0.000, 0.000, 0.000, 22:41:55.388, 1541907715388
8, -10005.91, 13338.49, 0.00, 187500.00, -187500.02, -187500.02, -187500.02, -187500.02, 0.000, 0.000, 0.000, 22:41:55.389, 1541907715389
9, -9941.59, 13121.93, 0.00, 187500.00, -187500.02, -187500.02, -187500.02, -187500.02, 0.000, 0.000, 0.000, 22:41:55.389, 1541907715389
10, -9689.64, 13498.08, 0.00, 187500.00, -187500.02, -187500.02, -187500.02, -187500.02, 0.000, 0.000, 0.000, 22:41:55.389, 1541907715389
11, -9810.27, 13585.68, 0.00, 187500.00, -187500.02, -187500.02, -187500.02, -187500.02, 0.000, 0.000, 0.000, 22:41:55.389, 1541907715389
12, -9999.77, 13314.04, 0.00, 187500.00, -187500.02, -187500.02, -187500.02, -187500.02, 0.000, 0.000, 0.000, 22:41:55.390, 1541907715390
13, -10014.43, 13038.76, 0.00, 187500.00, -187500.02, -187500.02, -187500.02, -187500.02, 0.000, 0.000, 0.000, 22:41:55.390, 1541907715390
14, -9735.01, 13368.87, 0.00, 187500.00, -187500.02, -187500.02, -187500.02, -187500.02, 0.106, 0.818, 0.532, 22:41:55.390, 1541907715390
15, -9788.92, 13582.98, 0.00, 187500.00, -187500.02, -187500.02, -187500.02, -187500.02, 0.000, 0.000, 0.000, 22:41:55.392, 1541907715392
16, -10002.58, 13351.28, 0.00, 187500.00, -187500.02, -187500.02, -187500.02, -187500.02, 0.000, 0.000, 0.000, 22:41:55.396, 1541907715396
17, -10057.17, 13042.31, 0.00, 187500.00, -187500.02, -187500.02, -187500.02, -187500.02, 0.000, 0.000, 0.000, 22:41:55.397, 1541907715397
18, -9756.29, 13302.06, 0.00, 187500.00, -187500.02, -187500.02, -187500.02, -187500.02, 0.000, 0.000, 0.000, 22:41:55.399, 1541907715399
19, -9748.96, 13628.82, 0.00, 187500.00, -187500.02, -187500.02, -187500.02, -187500.02, 0.000, 0.000, 0.000, 22:41:55.399, 1541907715399
20, -10006.00, 13427.54, 0.00, 187500.00, -187500.02, -187500.02, -187500.02, -187500.02, 0.000, 0.000, 0.000, 22:41:55.401, 1541907715401
21, -10109.16, 13108.90, 0.00, 187500.00, -187500.02, -187500.02, -187500.02, -187500.02, 0.000, 0.000, 0.000, 22:41:55.403, 1541907715403
22, -9890.22, 13216.16, 0.00, 187500.00, -187500.02, -187500.02, -187500.02, -187500.02, 0.000, 0.000, 0.000, 22:41:55.403, 1541907715403
23, -9739.46, 13644.98, 0.00, 187500.00, -187500.02, -187500.02, -187500.02, -187500.02, 0.110, 0.824, 0.544, 22:41:55.405, 1541907715405
24, -9914.05, 13517.62, 0.00, 187500.00, -187500.02, -187500.02, -187500.02, -187500.02, 0.000, 0.000, 0.000, 22:41:55.405, 1541907715405
25, -10036.25, 13205.32, 0.00, 187500.00, -187500.02, -187500.02, -187500.02, -187500.02, 0.000, 0.000, 0.000, 22:41:55.406, 1541907715406
26, -9901.08, 13151.90, 0.00, 187500.00, -187500.02, -187500.02, -187500.02, -187500.02, 0.000, 0.000, 0.000, 22:41:55.406, 1541907715406
27, -9709.44, 13589.55, 0.00, 187500.00, -187500.02, -187500.02, -187500.02, -187500.02, 0.000, 0.000, 0.000, 22:41:55.406, 1541907715406
28, -9973.59, 13530.47, 0.00, 187500.00, -187500.02, -187500.02, -187500.02, -187500.02, 0.000, 0.000, 0.000, 22:41:55.406, 1541907715406
29, -10158.91, 13230.09, 0.00, 187500.00, -187500.02, -187500.02, -187500.02, -187500.02, 0.000, 0.000, 0.000, 22:41:55.407, 1541907715407
30, -10070.31, 13075.30, 0.00, 187500.00, -187500.02, -187500.02, -187500.02, -187500.02, 0.000, 0.000, 0.000, 22:41:55.407, 1541907715407
31, -9784.32, 13537.85, 0.00, 187500.00, -187500.02, -187500.02, -187500.02, -187500.02, 0.000, 0.000, 0.000, 22:41:55.407, 1541907715407
32, -9907.23, 13604.12, 0.00, 187500.00, -187500.02, -187500.02, -187500.02, -187500.02, 0.000, 0.000, 0.000, 22:41:55.407, 1541907715407
33, -10109.69, 13300.72, 0.00, 187500.00, -187500.02, -187500.02, -187500.02, -187500.02, 0.098, 0.812, 0.578, 22:41:55.407, 1541907715407
34, -10095.05, 13076.28, 0.00, 187500.00, -187500.02, -187500.02, -187500.02, -187500.02, 0.000, 0.000, 0.000, 22:41:55.407, 1541907715407
35, -9787.85, 13486.77, 0.00, 187500.00, -187500.02, -187500.02, -187500.02, -187500.02, 0.000, 0.000, 0.000, 22:41:55.408, 1541907715408
36, -9856.07, 13636.60, 0.00, 187500.00, -187500.02, -187500.02, -187500.02, -187500.02, 0.000, 0.000, 0.000, 22:41:55.408, 1541907715408
37, -10110.23, 13360.84, 0.00, 187500.00, -187500.02, -187500.02, -187500.02, -187500.02, 0.000, 0.000, 0.000, 22:41:55.408, 1541907715408
38, -10179.57, 13038.71, 0.00, 187500.00, -187500.02, -187500.02, -187500.02, -187500.02, 0.000, 0.000, 0.000, 22:41:55.408, 1541907715408
39, -9898.60, 13341.49, 0.00, 187500.00, -187500.02, -187500.02, -187500.02, -187500.02, 0.000, 0.000, 0.000, 22:41:55.409, 1541907715409
40, -9883.92, 13599.31, 0.00, 187500.00, -187500.02, -187500.02, -187500.02, -187500.02, 0.000, 0.000, 0.000, 22:41:55.409, 1541907715409
41, -10095.66, 13366.14, 0.00, 187500.00, -187500.02, -187500.02, -187500.02, -187500.02, 0.000, 0.000, 0.000, 22:41:55.409, 1541907715409
42, -10135.29, 13031.04, 0.00, 187500.00, -187500.02, -187500.02, -187500.02, -187500.02, 0.000, 0.000, 0.000, 22:41:55.409, 1541907715409
43, -9899.88, 13203.35, 0.00, 187500.00, -187500.02, -187500.02, -187500.02, -187500.02, 0.094, 0.794, 0.604, 22:41:55.409, 1541907715409
44, -9880.75, 13529.09, 0.00, 187500.00, -187500.02, -187500.02, -187500.02, -187500.02, 0.000, 0.000, 0.000, 22:41:55.410, 1541907715410
45, -10093.78, 13354.07, 0.00, 187500.00, -187500.02, -187500.02, -187500.02, -187500.02, 0.000, 0.000, 0.000, 22:41:55.411, 1541907715411
46, -10188.84, 13030.75, 0.00, 187500.00, -187500.02, -187500.02, -187500.02, -187500.02, 0.000, 0.000, 0.000, 22:41:55.411, 1541907715411
47, -9960.36, 13112.07, 0.00, 187500.00, -187500.02, -187500.02, -187500.02, -187500.02, 0.000, 0.000, 0.000, 22:41:55.412, 1541907715412
48, -9810.31, 13520.55, 0.00, 187500.00, -187500.02, -187500.02, -187500.02, -187500.02, 0.000, 0.000, 0.000, 22:41:55.412, 1541907715412
49, -10000.39, 13411.96, 0.00, 187500.00, -187500.02, -187500.02, -187500.02, -187500.02, 0.000, 0.000, 0.000, 22:41:55.412, 1541907715412
50, -10128.38, 13103.84, 0.00, 187500.00, -187500.02, -187500.02, -187500.02, -187500.02, 0.000, 0.000, 0.000, 22:41:55.412, 1541907715412
51, -9987.27, 13024.85, 0.00, 187500.00, -187500.02, -187500.02, -187500.02, -187500.02, 0.000, 0.000, 0.000, 22:41:55.412, 1541907715412
52, -9781.73, 13451.48, 0.00, 187500.00, -187500.02, -187500.02, -187500.02, -187500.02, 0.000, 0.000, 0.000, 22:41:55.412, 1541907715412
53, -9985.98, 13428.53, 0.00, 187500.00, -187500.02, -187500.02, -187500.02, -187500.02, 0.076, 0.774, 0.608, 22:41:55.413, 1541907715413
54, -10179.52, 13124.36, 0.00, 187500.00, -187500.02, -187500.02, -187500.02, -187500.02, 0.000, 0.000, 0.000, 22:41:55.413, 1541907715413
55, -10106.25, 12966.31, 0.00, 187500.00, -187500.02, -187500.02, -187500.02, -187500.02, 0.000, 0.000, 0.000, 22:41:55.413, 1541907715413
56, -9833.36, 13424.55, 0.00, 187500.00, -187500.02, -187500.02, -187500.02, -187500.02, 0.000, 0.000, 0.000, 22:41:55.413, 1541907715413
57, -9938.46, 13488.03, 0.00, 187500.00, -187500.02, -187500.02, -187500.02, -187500.02, 0.000, 0.000, 0.000, 22:41:55.413, 1541907715413
58, -10123.71, 13201.12, 0.00, 187500.00, -187500.02, -187500.02, -187500.02, -187500.02, 0.000, 0.000, 0.000, 22:41:55.413, 1541907715413
59, -10135.73, 12942.91, 0.00, 187500.00, -187500.02, -187500.02, -187500.02, -187500.02, 0.000, 0.000, 0.000, 22:41:55.413, 1541907715413
60, -9861.95, 13311.45, 0.00, 187500.00, -187500.02, -187500.02, -187500.02, -187500.02, 0.000, 0.000, 0.000, 22:41:55.414, 1541907715414
61, -9928.24, 13482.82, 0.00, 187500.00, -187500.02, -187500.02, -187500.02, -187500.02, 0.000, 0.000, 0.000, 22:41:55.414, 1541907715414
62, -10110.92, 13243.54, 0.00, 187500.00, -187500.02, -187500.02, -187500.02, -187500.02, 0.000, 0.000, 0.000, 22:41:55.415, 1541907715415
63, -10192.69, 12941.91, 0.00, 187500.00, -187500.02, -187500.02, -187500.02, -187500.02, 0.066, 0.766, 0.600, 22:41:55.415, 1541907715415
64, -9903.52, 13243.14, 0.00, 187500.00, -187500.02, -187500.02, -187500.02, -187500.02, 0.000, 0.000, 0.000, 22:41:55.415, 1541907715415
65, -9881.35, 13520.32, 0.00, 187500.00, -187500.02, -187500.02, -187500.02, -187500.02, 0.000, 0.000, 0.000, 22:41:55.415, 1541907715415
66, -10111.50, 13286.19, 0.00, 187500.00, -187500.02, -187500.02, -187500.02, -187500.02, 0.000, 0.000, 0.000, 22:41:55.415, 1541907715415
67, -10193.83, 12966.65, 0.00, 187500.00, -187500.02, -187500.02, -187500.02, -187500.02, 0.000, 0.000, 0.000, 22:41:55.416, 1541907715416
68, -9916.80, 13125.35, 0.00, 187500.00, -187500.02, -187500.02, -187500.02, -187500.02, 0.000, 0.000, 0.000, 22:41:55.416, 1541907715416
69, -9837.72, 13488.72, 0.00, 187500.00, -187500.02, -187500.02, -187500.02, -187500.02, 0.000, 0.000, 0.000, 22:41:55.416, 1541907715416
70, -10063.85, 13326.62, 0.00, 187500.00, -187500.02, -187500.02, -187500.02, -187500.02, 0.000, 0.000, 0.000, 22:41:55.416, 1541907715416
71, -10136.11, 13018.42, 0.00, 187500.00, -187500.02, -187500.02, -187500.02, -187500.02, 0.000, 0.000, 0.000, 22:41:55.416, 1541907715416
72, -9894.69, 13056.55, 0.00, 187500.00, -187500.02, -187500.02, -187500.02, -187500.02, 0.086, 0.778, 0.576, 22:41:55.418, 1541907715418
73, -9777.39, 13469.29, 0.00, 187500.00, -187500.02, -187500.02, -187500.02, -187500.02, 0.000, 0.000, 0.000, 22:41:55.419, 1541907715419
74, -10017.54, 13364.17, 0.00, 187500.00, -187500.02, -187500.02, -187500.02, -187500.02, 0.000, 0.000, 0.000, 22:41:55.419, 1541907715419
75, -10154.73, 13052.75, 0.00, 187500.00, -187500.02, -187500.02, -187500.02, -187500.02, 0.000, 0.000, 0.000, 22:41:55.419, 1541907715419
76, -10030.61, 12964.30, 0.00, 187500.00, -187500.02, -187500.02, -187500.02, -187500.02, 0.000, 0.000, 0.000, 22:41:55.419, 1541907715419
77, -9797.53, 13428.73, 0.00, 187500.00, -187500.02, -187500.02, -187500.02, -187500.02, 0.000, 0.000, 0.000, 22:41:55.429, 1541907715429
78, -9974.87, 13404.94, 0.00, 187500.00, -187500.02, -187500.02, -187500.02, -187500.02, 0.000, 0.000, 0.000, 22:41:55.429, 1541907715429
79, -10136.38, 13105.63, 0.00, 187500.00, -187500.02, -187500.02, -187500.02, -187500.02, 0.000, 0.000, 0.000, 22:41:55.430, 1541907715430
80, -10026.12, 12945.04, 0.00, 187500.00, -187500.02, -187500.02, -187500.02, -187500.02, 0.000, 0.000, 0.000, 22:41:55.431, 1541907715431
81, -9731.79, 13377.25, 0.00, 187500.00, -187500.02, -187500.02, -187500.02, -187500.02, 0.000, 0.000, 0.000, 22:41:55.431, 1541907715431
82, -9862.66, 13463.75, 0.00, 187500.00, -187500.02, -187500.02, -187500.02, -187500.02, 0.110, 0.806, 0.552, 22:41:55.433, 1541907715433
83, -10076.19, 13181.90, 0.00, 187500.00, -187500.02, -187500.02, -187500.02, -187500.02, 0.000, 0.000, 0.000, 22:41:55.433, 1541907715433
84, -10057.70, 12917.32, 0.00, 187500.00, -187500.02, -187500.02, -187500.02, -187500.02, 0.000, 0.000, 0.000, 22:41:55.433, 1541907715433
85, -9742.72, 13298.91, 0.00, 187500.00, -187500.02, -187500.02, -187500.02, -187500.02, 0.000, 0.000, 0.000, 22:41:55.433, 1541907715433
86, -9808.41, 13503.00, 0.00, 187500.00, -187500.02, -187500.02, -187500.02, -187500.02, 0.000, 0.000, 0.000, 22:41:55.433, 1541907715433
87, -10038.08, 13231.61, 0.00, 187500.00, -187500.02, -187500.02, -187500.02, -187500.02, 0.000, 0.000, 0.000, 22:41:55.433, 1541907715433
88, -10076.23, 12918.68, 0.00, 187500.00, -187500.02, -187500.02, -187500.02, -187500.02, 0.000, 0.000, 0.000, 22:41:55.433, 1541907715433
89, -9797.13, 13191.19, 0.00, 187500.00, -187500.02, -187500.02, -187500.02, -187500.02, 0.000, 0.000, 0.000, 22:41:55.433, 1541907715433
90, -9737.34, 13507.85, 0.00, 187500.00, -187500.02, -187500.02, -187500.02, -187500.02, 0.000, 0.000, 0.000, 22:41:55.433, 1541907715433
91, -9934.50, 13305.19, 0.00, 187500.00, -187500.02, -187500.02, -187500.02, -187500.02, 0.000, 0.000, 0.000, 22:41:55.434, 1541907715434
92, -10080.46, 12956.12, 0.00, 187500.00, -187500.02, -187500.02, -187500.02, -187500.02, 0.120, 0.826, 0.546, 22:41:55.434, 1541907715434
93, -9845.18, 13080.44, 0.00, 187500.00, -187500.02, -187500.02, -187500.02, -187500.02, 0.000, 0.000, 0.000, 22:41:55.434, 1541907715434
94, -9742.52, 13466.21, 0.00, 187500.00, -187500.02, -187500.02, -187500.02, -187500.02, 0.000, 0.000, 0.000, 22:41:55.434, 1541907715434
95, -9936.18, 13336.30, 0.00, 187500.00, -187500.02, -187500.02, -187500.02, -187500.02, 0.000, 0.000, 0.000, 22:41:55.436, 1541907715436
96, -10039.55, 12982.47, 0.00, 187500.00, -187500.02, -187500.02, -187500.02, -187500.02, 0.000, 0.000, 0.000, 22:41:55.437, 1541907715437
97, -9889.48, 12993.16, 0.00, 187500.00, -187500.02, -187500.02, -187500.02, -187500.02, 0.000, 0.000, 0.000, 22:41:55.437, 1541907715437
98, -9705.51, 13455.86, 0.00, 187500.00, -187500.02, -187500.02, -187500.02, -187500.02, 0.000, 0.000, 0.000, 22:41:55.437, 1541907715437
99, -9897.67, 13380.60, 0.00, 187500.00, -187500.02, -187500.02, -187500.02, -187500.02, 0.000, 0.000, 0.000, 22:41:55.437, 1541907715437
100, -10044.27, 13075.88, 0.00, 187500.00, -187500.02, -187500.02, -187500.02, -187500.02, 0.000, 0.000, 0.000, 22:41:55.437, 1541907715437
101, -9885.55, 12969.17, 0.00, 187500.00, -187500.02, -187500.02, -187500.02, -187500.02, 0.000, 0.000, 0.000, 22:41:55.437, 1541907715437
102, -9686.60, 13424.19, 0.00, 187500.00, -187500.02, -187500.02, -187500.02, -187500.02, 0.112, 0.850, 0.568, 22:41:55.437, 1541907715437
103, -9851.42, 13445.98, 0.00, 187500.00, -187500.02, -187500.02, -187500.02, -187500.02, 0.000, 0.000, 0.000, 22:41:55.437, 1541907715437
104, -10011.70, 13149.11, 0.00, 187500.00, -187500.02, -187500.02, -187500.02, -187500.02, 0.000, 0.000, 0.000, 22:41:55.437, 1541907715437
105, -9963.27, 12937.84, 0.00, 187500.00, -187500.02, -187500.02, -187500.02, -187500.02, 0.000, 0.000, 0.000, 22:41:55.437, 1541907715437
106, -9666.28, 13357.22, 0.00, 187500.00, -187500.02, -187500.02, -187500.02, -187500.02, 0.000, 0.000, 0.000, 22:41:55.437, 1541907715437
107, -9802.60, 13451.10, 0.00, 187500.00, -187500.02, -187500.02, -187500.02, -187500.02, 0.000, 0.000, 0.000, 22:41:55.438, 1541907715438
108, -10007.17, 13171.97, 0.00, 187500.00, -187500.02, -187500.02, -187500.02, -187500.02, 0.000, 0.000, 0.000, 22:41:55.438, 1541907715438
109, -9939.04, 12927.13, 0.00, 187500.00, -187500.02, -187500.02, -187500.02, -187500.02, 0.000, 0.000, 0.000, 22:41:55.438, 1541907715438
110, -9736.67, 13273.27, 0.00, 187500.00, -187500.02, -187500.02, -187500.02, -187500.02, 0.000, 0.000, 0.000, 22:41:55.438, 1541907715438
111, -9834.68, 13474.01, 0.00, 187500.00, -187500.02, -187500.02, -187500.02, -187500.02, 0.000, 0.000, 0.000, 22:41:55.438, 1541907715438
112, -10025.00, 13262.94, 0.00, 187500.00, -187500.02, -187500.02, -187500.02, -187500.02, 0.090, 0.798, 0.586, 22:41:55.438, 1541907715438
113, -10081.75, 12977.31, 0.00, 187500.00, -187500.02, -187500.02, -187500.02, -187500.02, 0.000, 0.000, 0.000, 22:41:55.438, 1541907715438
114, -9798.65, 13198.84, 0.00, 187500.00, -187500.02, -187500.02, -187500.02, -187500.02, 0.000, 0.000, 0.000, 22:41:55.439, 1541907715439
115, -9795.96, 13509.66, 0.00, 187500.00, -187500.02, -187500.02, -187500.02, -187500.02, 0.000, 0.000, 0.000, 22:41:55.439, 1541907715439
116, -10036.25, 13312.70, 0.00, 187500.00, -187500.02, -187500.02, -187500.02, -187500.02, 0.000, 0.000, 0.000, 22:41:55.439, 1541907715439
117, -10138.30, 12994.05, 0.00, 187500.00, -187500.02, -187500.02, -187500.02, -187500.02, 0.000, 0.000, 0.000, 22:41:55.439, 1541907715439
118, -9905.38, 13111.60, 0.00, 187500.00, -187500.02, -187500.02, -187500.02, -187500.02, 0.000, 0.000, 0.000, 22:41:55.439, 1541907715439
119, -9764.18, 13528.79, 0.00, 187500.00, -187500.02, -187500.02, -187500.02, -187500.02, 0.000, 0.000, 0.000, 22:41:55.443, 1541907715443
120, -9943.53, 13402.42, 0.00, 187500.00, -187500.02, -187500.02, -187500.02, -187500.02, 0.000, 0.000, 0.000, 22:41:55.444, 1541907715444
121, -10067.81, 13091.33, 0.00, 187500.00, -187500.02, -187500.02, -187500.02, -187500.02, 0.076, 0.772, 0.608, 22:41:55.699, 1541907715699
122, -9958.84, 13072.55, 0.00, 187500.00, -187500.02, -187500.02, -187500.02, -187500.02, 0.000, 0.000, 0.000, 22:41:55.699, 1541907715699
123, -9771.22, 13531.92, 0.00, 187500.00, -187500.02, -187500.02, -187500.02, -187500.02, 0.000, 0.000, 0.000, 22:41:55.699, 1541907715699
124, -9960.21, 13481.77, 0.00, 187500.00, -187500.02, -187500.02, -187500.02, -187500.02, 0.000, 0.000, 0.000, 22:41:55.699, 1541907715699
125, -10125.99, 13158.54, 0.00, 187500.00, -187500.02, -187500.02, -187500.02, -187500.02, 0.000, 0.000, 0.000, 22:41:55.699, 1541907715699
126, -9985.73, 13025.57, 0.00, 187500.00, -187500.02, -187500.02, -187500.02, -187500.02, 0.000, 0.000, 0.000, 22:41:55.699, 1541907715699
127, -9716.71, 13473.88, 0.00, 187500.00, -187500.02, -187500.02, -187500.02, -187500.02, 0.000, 0.000, 0.000, 22:41:55.700, 1541907715700
128, -9893.51, 13496.21, 0.00, 187500.00, -187500.02, -187500.02, -187500.02, -187500.02, 0.000, 0.000, 0.000, 22:41:55.700, 1541907715700
129, -10068.03, 13222.35, 0.00, 187500.00, -187500.02, -187500.02, -187500.02, -187500.02, 0.000, 0.000, 0.000, 22:41:55.700, 1541907715700
130, -10012.78, 13000.96, 0.00, 187500.00, -187500.02, -187500.02, -187500.02, -187500.02, 0.000, 0.000, 0.000, 22:41:55.700, 1541907715700
131, -9756.69, 13407.27, 0.00, 187500.00, -187500.02, -187500.02, -187500.02, -187500.02, 0.068, 0.790, 0.610, 22:41:55.700, 1541907715700
132, -9876.95, 13560.60, 0.00, 187500.00, -187500.02, -187500.02, -187500.02, -187500.02, 0.000, 0.000, 0.000, 22:41:55.700, 1541907715700
133, -10052.23, 13312.12, 0.00, 187500.00, -187500.02, -187500.02, -187500.02, -187500.02, 0.000, 0.000, 0.000, 22:41:55.700, 1541907715700
134, -10064.41, 13017.68, 0.00, 187500.00, -187500.02, -187500.02, -187500.02, -187500.02, 0.000, 0.000, 0.000, 22:41:55.700, 1541907715700
135, -9762.55, 13345.71, 0.00, 187500.00, -187500.02, -187500.02, -187500.02, -187500.02, 0.000, 0.000, 0.000, 22:41:55.701, 1541907715701
136, -9787.65, 13613.26, 0.00, 187500.00, -187500.02, -187500.02, -187500.02, -187500.02, 0.000, 0.000, 0.000, 22:41:55.701, 1541907715701
137, -9975.92, 13409.19, 0.00, 187500.00, -187500.02, -187500.02, -187500.02, -187500.02, 0.000, 0.000, 0.000, 22:41:55.701, 1541907715701
138, -10077.66, 13098.23, 0.00, 187500.00, -187500.02, -187500.02, -187500.02, -187500.02, 0.000, 0.000, 0.000, 22:41:55.702, 1541907715702
139, -9820.73, 13334.29, 0.00, 187500.00, -187500.02, -187500.02, -187500.02, -187500.02, 0.000, 0.000, 0.000, 22:41:55.702, 1541907715702
140, -9784.16, 13677.01, 0.00, 187500.00, -187500.02, -187500.02, -187500.02, -187500.02, 0.000, 0.000, 0.000, 22:41:55.702, 1541907715702
141, -9977.10, 13494.49, 0.00, 187500.00, -187500.02, -187500.02, -187500.02, -187500.02, 0.068, 0.786, 0.584, 22:41:55.702, 1541907715702
142, -10029.85, 13199.02, 0.00, 187500.00, -187500.02, -187500.02, -187500.02, -187500.02, 0.000, 0.000, 0.000, 22:41:55.703, 1541907715703
143, -9831.62, 13289.39, 0.00, 187500.00, -187500.02, -187500.02, -187500.02, -187500.02, 0.000, 0.000, 0.000, 22:41:55.703, 1541907715703
144, -9734.68, 13696.46, 0.00, 187500.00, -187500.02, -187500.02, -187500.02, -187500.02, 0.000, 0.000, 0.000, 22:41:55.703, 1541907715703
145, -9974.67, 13549.49, 0.00, 187500.00, -187500.02, -187500.02, -187500.02, -187500.02, 0.000, 0.000, 0.000, 22:41:55.703, 1541907715703
146, -10115.37, 13217.73, 0.00, 187500.00, -187500.02, -187500.02, -187500.02, -187500.02, 0.000, 0.000, 0.000, 22:41:55.703, 1541907715703
147, -9906.99, 13217.39, 0.00, 187500.00, -187500.02, -187500.02, -187500.02, -187500.02, 0.000, 0.000, 0.000, 22:41:55.703, 1541907715703
148, -9659.19, 13700.41, 0.00, 187500.00, -187500.02, -187500.02, -187500.02, -187500.02, 0.000, 0.000, 0.000, 22:41:55.703, 1541907715703
149, -9823.86, 13607.47, 0.00, 187500.00, -187500.02, -187500.02, -187500.02, -187500.02, 0.000, 0.000, 0.000, 22:41:55.703, 1541907715703
150, -10067.23, 13279.95, 0.00, 187500.00, -187500.02, -187500.02, -187500.02, -187500.02, 0.000, 0.000, 0.000, 22:41:55.703, 1541907715703
151, -10001.58, 13115.20, 0.00, 187500.00, -187500.02, -187500.02, -187500.02, -187500.02, 0.082, 0.792, 0.560, 22:41:55.703, 1541907715703
152, -9738.95, 13551.17, 0.00, 187500.00, -187500.02, -187500.02, -187500.02, -187500.02, 0.000, 0.000, 0.000, 22:41:55.704, 1541907715704
153, -9880.75, 13592.86, 0.00, 187500.00, -187500.02, -187500.02, -187500.02, -187500.02, 0.000, 0.000, 0.000, 22:41:55.704, 1541907715704
154, -10033.81, 13329.28, 0.00, 187500.00, -187500.02, -187500.02, -187500.02, -187500.02, 0.000, 0.000, 0.000, 22:41:55.704, 1541907715704
155, -9988.48, 13103.24, 0.00, 187500.00, -187500.02, -187500.02, -187500.02, -187500.02, 0.000, 0.000, 0.000, 22:41:55.705, 1541907715705
156, -9698.60, 13493.21, 0.00, 187500.00, -187500.02, -187500.02, -187500.02, -187500.02, 0.000, 0.000, 0.000, 22:41:55.706, 1541907715706
157, -9805.20, 13646.70, 0.00, 187500.00, -187500.02, -187500.02, -187500.02, -187500.02, 0.000, 0.000, 0.000, 22:41:55.706, 1541907715706
158, -10001.11, 13396.72, 0.00, 187500.00, -187500.02, -187500.02, -187500.02, -187500.02, 0.000, 0.000, 0.000, 22:41:55.706, 1541907715706
159, -9999.95, 13123.20, 0.00, 187500.00, -187500.02, -187500.02, -187500.02, -187500.02, 0.000, 0.000, 0.000, 22:41:55.706, 1541907715706
160, -9728.91, 13431.48, 0.00, 187500.00, -187500.02, -187500.02, -187500.02, -187500.02, 0.108, 0.808, 0.546, 22:41:55.706, 1541907715706
161, -9785.86, 13688.07, 0.00, 187500.00, -187500.02, -187500.02, -187500.02, -187500.02, 0.000, 0.000, 0.000, 22:41:55.706, 1541907715706
162, -9973.84, 13497.57, 0.00, 187500.00, -187500.02, -187500.02, -187500.02, -187500.02, 0.000, 0.000, 0.000, 22:41:55.706, 1541907715706
163, -10061.57, 13162.23, 0.00, 187500.00, -187500.02, -187500.02, -187500.02, -187500.02, 0.000, 0.000, 0.000, 22:41:55.707, 1541907715707
164, -9764.87, 13355.37, 0.00, 187500.00, -187500.02, -187500.02, -187500.02, -187500.02, 0.000, 0.000, 0.000, 22:41:55.707, 1541907715707
165, -9688.90, 13733.40, 0.00, 187500.00, -187500.02, -187500.02, -187500.02, -187500.02, 0.000, 0.000, 0.000, 22:41:55.707, 1541907715707
166, -9921.22, 13558.99, 0.00, 187500.00, -187500.02, -187500.02, -187500.02, -187500.02, 0.000, 0.000, 0.000, 22:41:55.707, 1541907715707
167, -10021.78, 13237.73, 0.00, 187500.00, -187500.02, -187500.02, -187500.02, -187500.02, 0.000, 0.000, 0.000, 22:41:55.707, 1541907715707
168, -9880.39, 13290.77, 0.00, 187500.00, -187500.02, -187500.02, -187500.02, -187500.02, 0.000, 0.000, 0.000, 22:41:55.707, 1541907715707
169, -9751.51, 13702.42, 0.00, 187500.00, -187500.02, -187500.02, -187500.02, -187500.02, 0.000, 0.000, 0.000, 22:41:55.707, 1541907715707
170, -9933.83, 13591.60, 0.00, 187500.00, -187500.02, -187500.02, -187500.02, -187500.02, 0.110, 0.824, 0.546, 22:41:55.707, 1541907715707
171, -10048.20, 13293.21, 0.00, 187500.00, -187500.02, -187500.02, -187500.02, -187500.02, 0.000, 0.000, 0.000, 22:41:55.707, 1541907715707
172, -9896.23, 13248.19, 0.00, 187500.00, -187500.02, -187500.02, -187500.02, -187500.02, 0.000, 0.000, 0.000, 22:41:55.707, 1541907715707
173, -9680.65, 13684.47, 0.00, 187500.00, -187500.02, -187500.02, -187500.02, -187500.02, 0.000, 0.000, 0.000, 22:41:55.707, 1541907715707
174, -9857.68, 13628.84, 0.00, 187500.00, -187500.02, -187500.02, -187500.02, -187500.02, 0.000, 0.000, 0.000, 22:41:55.707, 1541907715707
175, -10027.26, 13313.32, 0.00, 187500.00, -187500.02, -187500.02, -187500.02, -187500.02, 0.000, 0.000, 0.000, 22:41:55.708, 1541907715708
176, -9964.54, 13149.08, 0.00, 187500.00, -187500.02, -187500.02, -187500.02, -187500.02, 0.000, 0.000, 0.000, 22:41:55.708, 1541907715708
177, -9696.34, 13595.90, 0.00, 187500.00, -187500.02, -187500.02, -187500.02, -187500.02, 0.000, 0.000, 0.000, 22:41:55.708, 1541907715708
178, -9824.73, 13672.99, 0.00, 187500.00, -187500.02, -187500.02, -187500.02, -187500.02, 0.000, 0.000, 0.000, 22:41:55.708, 1541907715708
179, -10048.25, 13366.86, 0.00, 187500.00, -187500.02, -187500.02, -187500.02, -187500.02, 0.000, 0.000, 0.000, 22:41:55.708, 1541907715708
180, -10043.11, 13096.38, 0.00, 187500.00, -187500.02, -187500.02, -187500.02, -187500.02, 0.112, 0.826, 0.568, 22:41:55.708, 1541907715708
181, -9727.17, 13473.47, 0.00, 187500.00, -187500.02, -187500.02, -187500.02, -187500.02, 0.000, 0.000, 0.000, 22:41:55.708, 1541907715708
182, -9800.57, 13657.92, 0.00, 187500.00, -187500.02, -187500.02, -187500.02, -187500.02, 0.000, 0.000, 0.000, 22:41:55.708, 1541907715708
183, -10022.23, 13393.66, 0.00, 187500.00, -187500.02, -187500.02, -187500.02, -187500.02, 0.000, 0.000, 0.000, 22:41:55.708, 1541907715708
184, -10041.77, 13088.69, 0.00, 187500.00, -187500.02, -187500.02, -187500.02, -187500.02, 0.000, 0.000, 0.000, 22:41:55.708, 1541907715708
185, -9740.31, 13363.12, 0.00, 187500.00, -187500.02, -187500.02, -187500.02, -187500.02, 0.000, 0.000, 0.000, 22:41:55.708, 1541907715708
186, -9750.66, 13645.38, 0.00, 187500.00, -187500.02, -187500.02, -187500.02, -187500.02, 0.000, 0.000, 0.000, 22:41:55.709, 1541907715709
187, -9967.13, 13427.83, 0.00, 187500.00, -187500.02, -187500.02, -187500.02, -187500.02, 0.000, 0.000, 0.000, 22:41:55.709, 1541907715709
188, -10072.37, 13109.66, 0.00, 187500.00, -187500.02, -187500.02, -187500.02, -187500.02, 0.000, 0.000, 0.000, 22:41:55.709, 1541907715709
189, -9817.56, 13270.45, 0.00, 187500.00, -187500.02, -187500.02, -187500.02, -187500.02, 0.000, 0.000, 0.000, 22:41:55.709, 1541907715709
190, -9743.33, 13626.79, 0.00, 187500.00, -187500.02, -187500.02, -187500.02, -187500.02, 0.094, 0.822, 0.588, 22:41:55.709, 1541907715709
191, -9994.81, 13479.55, 0.00, 187500.00, -187500.02, -187500.02, -187500.02, -187500.02, 0.000, 0.000, 0.000, 22:41:55.709, 1541907715709
192, -10128.74, 13163.52, 0.00, 187500.00, -187500.02, -187500.02, -187500.02, -187500.02, 0.000, 0.000, 0.000, 22:41:55.709, 1541907715709
193, -9950.13, 13224.48, 0.00, 187500.00, -187500.02, -187500.02, -187500.02, -187500.02, 0.000, 0.000, 0.000, 22:41:55.709, 1541907715709
194, -9778.84, 13699.03, 0.00, 187500.00, -187500.02, -187500.02, -187500.02, -187500.02, 0.000, 0.000, 0.000, 22:41:55.709, 1541907715709
195, -9987.25, 13612.19, 0.00, 187500.00, -187500.02, -187500.02, -187500.02, -187500.02, 0.000, 0.000, 0.000, 22:41:55.709, 1541907715709
196, -10145.59, 13281.34, 0.00, 187500.00, -187500.02, -187500.02, -187500.02, -187500.02, 0.000, 0.000, 0.000, 22:41:55.709, 1541907715709
0, 0.00, 0.00, 0.00, 0.00, 0.00, 0.00, 0.00, 0.00, 0.074, 0.810, 0.592, 22:41:55.714, 1541907715714
1, -9644.98, 13763.96, 0.00, 0.00, -187500.02, -187500.02, -187500.02, -187500.02, 0.000, 0.000, 0.000, 22:41:56.199, 1541907716199
2, -9722.41, 13422.89, 0.00, 0.00, -187500.02, -187500.02, -187500.02, -187500.02, 0.000, 0.000, 0.000, 22:41:56.199, 1541907716199
3, -9485.45, 13742.01, 0.00, 0.00, -187500.02, -187500.02, -187500.02, -187500.02, 0.000, 0.000, 0.000, 22:41:56.199, 1541907716199
4, -9617.24, 13862.13, 0.00, 0.00, -187500.02, -187500.02, -187500.02, -187500.02, 0.000, 0.000, 0.000, 22:41:56.199, 1541907716199
5, -9847.78, 13574.86, 0.00, 0.00, -187500.02, -187500.02, -187500.02, -187500.02, 0.000, 0.000, 0.000, 22:41:56.200, 1541907716200
6, -9906.14, 13251.72, 0.00, 0.00, -187500.02, -187500.02, -187500.02, -187500.02, 0.072, 0.808, 0.594, 22:41:56.200, 1541907716200
7, -9664.74, 13514.18, 0.00, 0.00, -187500.02, -187500.02, -187500.02, -187500.02, 0.000, 0.000, 0.000, 22:41:56.200, 1541907716200
8, -9757.79, 13737.40, 0.00, 0.00, -187500.02, -187500.02, -187500.02, -187500.02, 0.000, 0.000, 0.000, 22:41:56.200, 1541907716200
9, -9977.77, 13509.30, 0.00, 0.00, -187500.02, -187500.02, -187500.02, -187500.02, 0.000, 0.000, 0.000, 22:41:56.200, 1541907716200
10, -10048.05, 13183.75, 0.00, 0.00, -187500.02, -187500.02, -187500.02, -187500.02, 0.000, 0.000, 0.000, 22:41:56.200, 1541907716200
11, -9796.77, 13356.26, 0.00, 0.00, -187500.02, -187500.02, -187500.02, -187500.02, 0.000, 0.000, 0.000, 22:41:56.200, 1541907716200
12, -9752.83, 13727.61, 0.00, 0.00, -187500.02, -187500.02, -187500.02, -187500.02, 0.000, 0.000, 0.000, 22:41:56.200, 1541907716200
13, -9961.64, 13549.09, 0.00, 0.00, -187500.02, -187500.02, -187500.02, -187500.02, 0.000, 0.000, 0.000, 22:41:56.201, 1541907716201
14, -10086.47, 13194.93, 0.00, 0.00, -187500.02, -187500.02, -187500.02, -187500.02, 0.000, 0.000, 0.000, 22:41:56.201, 1541907716201
15, -9899.10, 13227.38, 0.00, 0.00, -187500.02, -187500.02, -187500.02, -187500.02, 0.000, 0.000, 0.000, 22:41:56.201, 1541907716201
16, -9749.79, 13653.09, 0.00, 0.00, -187500.02, -187500.02, -187500.02, -187500.02, 0.056, 0.800, 0.584, 22:41:56.201, 1541907716201
17, -9925.02, 13558.39, 0.00, 0.00, -187500.02, -187500.02, -187500.02, -187500.02, 0.000, 0.000, 0.000, 22:41:56.202, 1541907716202
18, -10056.97, 13252.55, 0.00, 0.00, -187500.02, -187500.02, -187500.02, -187500.02, 0.000, 0.000, 0.000, 22:41:56.202, 1541907716202
19, -9901.53, 13175.75, 0.00, 0.00, -187500.02, -187500.02, -187500.02, -187500.02, 0.000, 0.000, 0.000, 22:41:56.202, 1541907716202
20, -9703.61, 13629.33, 0.00, 0.00, -187500.02, -187500.02, -187500.02, -187500.02, 0.000, 0.000, 0.000, 22:41:56.202, 1541907716202
21, -9881.06, 13619.52, 0.00, 0.00, -187500.02, -187500.02, -187500.02, -187500.02, 0.000, 0.000, 0.000, 22:41:56.203, 1541907716203
22, -10082.13, 13311.63, 0.00, 0.00, -187500.02, -187500.02, -187500.02, -187500.02, 0.000, 0.000, 0.000, 22:41:56.203, 1541907716203
23, -10016.58, 13117.25, 0.00, 0.00, -187500.02, -187500.02, -187500.02, -187500.02, 0.000, 0.000, 0.000, 22:41:56.203, 1541907716203
24, -9721.91, 13555.13, 0.00, 0.00, -187500.02, -187500.02, -187500.02, -187500.02, 0.000, 0.000, 0.000, 22:41:56.203, 1541907716203
25, -9866.04, 13605.15, 0.00, 0.00, -187500.02, -187500.02, -187500.02, -187500.02, 0.000, 0.000, 0.000, 22:41:56.203, 1541907716203
26, -10032.47, 13332.64, 0.00, 0.00, -187500.02, -187500.02, -187500.02, -187500.02, 0.056, 0.810, 0.566, 22:41:56.203, 1541907716203
27, -10041.21, 13064.91, 0.00, 0.00, -187500.02, -187500.02, -187500.02, -187500.02, 0.000, 0.000, 0.000, 22:41:56.203, 1541907716203
28, -9729.31, 13451.95, 0.00, 0.00, -187500.02, -187500.02, -187500.02, -187500.02, 0.000, 0.000, 0.000, 22:41:56.203, 1541907716203
29, -9783.20, 13656.18, 0.00, 0.00, -187500.02, -187500.02, -187500.02, -187500.02, 0.000, 0.000, 0.000, 22:41:56.203, 1541907716203
30, -9969.71, 13394.86, 0.00, 0.00, -187500.02, -187500.02, -187500.02, -187500.02, 0.000, 0.000, 0.000, 22:41:56.203, 1541907716203
31, -10045.30, 13112.00, 0.00, 0.00, -187500.02, -187500.02, -187500.02, -187500.02, 0.000, 0.000, 0.000, 22:41:56.203, 1541907716203
32, -9796.86, 13345.62, 0.00, 0.00, -187500.02, -187500.02, -187500.02, -187500.02, 0.000, 0.000, 0.000, 22:41:56.203, 1541907716203
33, -9795.81, 13643.71, 0.00, 0.00, -187500.02, -187500.02, -187500.02, -187500.02, 0.000, 0.000, 0.000, 22:41:56.203, 1541907716203
34, -10034.84, 13438.20, 0.00, 0.00, -187500.02, -187500.02, -187500.02, -187500.02, 0.000, 0.000, 0.000, 22:41:56.204, 1541907716204
35, -10124.87, 13102.84, 0.00, 0.00, -187500.02, -187500.02, -187500.02, -187500.02, 0.000, 0.000, 0.000, 22:41:56.204, 1541907716204
36, -9851.40, 13247.05, 0.00, 0.00, -187500.02, -187500.02, -187500.02, -187500.02, 0.078, 0.780, 0.550, 22:41:56.204, 1541907716204
37, -9720.80, 13631.12, 0.00, 0.00, -187500.02, -187500.02, -187500.02, -187500.02, 0.000, 0.000, 0.000, 22:41:56.204, 1541907716204
38, -9944.22, 13488.90, 0.00, 0.00, -187500.02, -187500.02, -187500.02, -187500.02, 0.000, 0.000, 0.000, 22:41:56.204, 1541907716204
39, -10094.58, 13129.06, 0.00, 0.00, -187500.02, -187500.02, -187500.02, -187500.02, 0.000, 0.000, 0.000, 22:41:56.204, 1541907716204
40, -9957.72, 13116.20, 0.00, 0.00, -187500.02, -187500.02, -187500.02, -187500.02, 0.000, 0.000, 0.000, 22:41:56.204, 1541907716204
41, -9801.04, 13526.90, 0.00, 0.00, -187500.02, -187500.02, -187500.02, -187500.02, 0.000, 0.000, 0.000, 22:41:56.204, 1541907716204
42, -9993.55, 13448.98, 0.00, 0.00, -187500.02, -187500.02, -187500.02, -187500.02, 0.000, 0.000, 0.000, 22:41:56.204, 1541907716204
43, -10118.86, 13151.97, 0.00, 0.00, -187500.02, -187500.02, -187500.02, -187500.02, 0.000, 0.000, 0.000, 22:41:56.204, 1541907716204
44, -9998.23, 13036.41, 0.00, 0.00, -187500.02, -187500.02, -187500.02, -187500.02, 0.000, 0.000, 0.000, 22:41:56.204, 1541907716204
45, -9737.72, 13522.02, 0.00, 0.00, -187500.02, -187500.02, -187500.02, -187500.02, 0.096, 0.814, 0.560, 22:41:56.204, 1541907716204
46, -9886.85, 13571.98, 0.00, 0.00, -187500.02, -187500.02, -187500.02, -187500.02, 0.000, 0.000, 0.000, 22:41:56.205, 1541907716205
47, -10086.36, 13261.56, 0.00, 0.00, -187500.02, -187500.02, -187500.02, -187500.02, 0.000, 0.000, 0.000, 22:41:56.205, 1541907716205
48, -10022.90, 13042.09, 0.00, 0.00, -187500.02, -187500.02, -187500.02, -187500.02, 0.000, 0.000, 0.000, 22:41:56.206, 1541907716206
49, -9726.90, 13451.46, 0.00, 0.00, -187500.02, -187500.02, -187500.02, -187500.02, 0.000, 0.000, 0.000, 22:41:56.207, 1541907716207
50, -9840.71, 13566.30, 0.00, 0.00, -187500.02, -187500.02, -187500.02, -187500.02, 0.000, 0.000, 0.000, 22:41:56.207, 1541907716207
51, -10051.04, 13274.66, 0.00, 0.00, -187500.02, -187500.02, -187500.02, -187500.02, 0.000, 0.000, 0.000, 22:41:56.207, 1541907716207
52, -10071.96, 12973.35, 0.00, 0.00, -187500.02, -187500.02, -187500.02, -187500.02, 0.000, 0.000, 0.000, 22:41:56.207, 1541907716207
53, -9727.72, 13325.46, 0.00, 0.00, -187500.02, -187500.02, -187500.02, -187500.02, 0.000, 0.000, 0.000, 22:41:56.208, 1541907716208
54, -9779.02, 13549.00, 0.00, 0.00, -187500.02, -187500.02, -187500.02, -187500.02, 0.000, 0.000, 0.000, 22:41:56.208, 1541907716208
55, -10038.57, 13319.83, 0.00, 0.00, -187500.02, -187500.02, -187500.02, -187500.02, 0.104, 0.788, 0.570, 22:41:56.208, 1541907716208
56, -10122.84, 12992.02, 0.00, 0.00, -187500.02, -187500.02, -187500.02, -187500.02, 0.000, 0.000, 0.000, 22:41:56.208, 1541907716208
57, -9825.87, 13226.62, 0.00, 0.00, -187500.02, -187500.02, -187500.02, -187500.02, 0.000, 0.000, 0.000, 22:41:56.208, 1541907716208
58, -9766.62, 13573.68, 0.00, 0.00, -187500.02, -187500.02, -187500.02, -187500.02, 0.000, 0.000, 0.000, 22:41:56.209, 1541907716209
59, -9976.19, 13382.41, 0.00, 0.00, -187500.02, -187500.02, -187500.02, -187500.02, 0.000, 0.000, 0.000, 22:41:56.209, 1541907716209
60, -10069.66, 13046.29, 0.00, 0.00, -187500.02, -187500.02, -187500.02, -187500.02, 0.000, 0.000, 0.000, 22:41:56.209, 1541907716209
61, -9857.34, 13155.66, 0.00, 0.00, -187500.02, -187500.02, -187500.02, -187500.02, 0.000, 0.000, 0.000, 22:41:56.209, 1541907716209
62, -9744.87, 13561.21, 0.00, 0.00, -187500.02, -187500.02, -187500.02, -187500.02, 0.000, 0.000, 0.000, 22:41:56.209, 1541907716209
63, -9949.36, 13440.59, 0.00, 0.00, -187500.02, -187500.02, -187500.02, -187500.02, 0.000, 0.000, 0.000, 22:41:56.210, 1541907716210
64, -10060.97, 13125.30, 0.00, 0.00, -187500.02, -187500.02, -187500.02, -187500.02, 0.000, 0.000, 0.000, 22:41:56.210, 1541907716210
65, -9885.80, 13101.83, 0.00, 0.00, -187500.02, -187500.02, -187500.02, -187500.02, 0.110, 0.820, 0.602, 22:41:56.210, 1541907716210
66, -9726.61, 13533.96, 0.00, 0.00, -187500.02, -187500.02, -187500.02, -187500.02, 0.000, 0.000, 0.000, 22:41:56.210, 1541907716210
67, -9938.05, 13486.77, 0.00, 0.00, -187500.02, -187500.02, -187500.02, -187500.02, 0.000, 0.000, 0.000, 22:41:56.210, 1541907716210
68, -10078.78, 13176.67, 0.00, 0.00, -187500.02, -187500.02, -187500.02, -187500.02, 0.000, 0.000, 0.000, 22:41:56.211, 1541907716211
69, -9954.77, 13060.82, 0.00, 0.00, -187500.02, -187500.02, -187500.02, -187500.02, 0.000, 0.000, 0.000, 22:41:56.211, 1541907716211
70, -9728.73, 13511.99, 0.00, 0.00, -187500.02, -187500.02, -187500.02, -187500.02, 0.000, 0.000, 0.000, 22:41:56.211, 1541907716211
71, -9890.76, 13536.10, 0.00, 0.00, -187500.02, -187500.02, -187500.02, -187500.02, 0.000, 0.000, 0.000, 22:41:56.211, 1541907716211
72, -10061.26, 13227.07, 0.00, 0.00, -187500.02, -187500.02, -187500.02, -187500.02, 0.000, 0.000, 0.000, 22:41:56.212, 1541907716212
73, -9993.13, 13002.12, 0.00, 0.00, -187500.02, -187500.02, -187500.02, -187500.02, 0.000, 0.000, 0.000, 22:41:56.212, 1541907716212
74, -9739.57, 13404.21, 0.00, 0.00, -187500.02, -187500.02, -187500.02, -187500.02, 0.000, 0.000, 0.000, 22:41:56.212, 1541907716212
75, -9844.16, 13546.27, 0.00, 0.00, -187500.02, -187500.02, -187500.02, -187500.02, 0.084, 0.812, 0.612, 22:41:56.212, 1541907716212
76, -10049.37, 13308.12, 0.00, 0.00, -187500.02, -187500.02, -187500.02, -187500.02, 0.000, 0.000, 0.000, 22:41:56.212, 1541907716212
77, -10054.08, 13041.82, 0.00, 0.00, -187500.02, -187500.02, -187500.02, -187500.02, 0.000, 0.000, 0.000, 22:41:56.212, 1541907716212
78, -9739.68, 13365.27, 0.00, 0.00, -187500.02, -187500.02, -187500.02, -187500.02, 0.000, 0.000, 0.000, 22:41:56.212, 1541907716212
79, -9750.86, 13590.04, 0.00, 0.00, -187500.02, -187500.02, -187500.02, -187500.02, 0.000, 0.000, 0.000, 22:41:56.212, 1541907716212
80, -9986.80, 13386.64, 0.00, 0.00, -187500.02, -187500.02, -187500.02, -187500.02, 0.000, 0.000, 0.000, 22:41:56.213, 1541907716213
81, -10070.31, 13104.60, 0.00, 0.00, -187500.02, -187500.02, -187500.02, -187500.02, 0.000, 0.000, 0.000, 22:41:56.213, 1541907716213
82, -9781.48, 13293.45, 0.00, 0.00, -187500.02, -187500.02, -187500.02, -187500.02, 0.000, 0.000, 0.000, 22:41:56.213, 1541907716213
83, -9710.42, 13630.43, 0.00, 0.00, -187500.02, -187500.02, -187500.02, -187500.02, 0.000, 0.000, 0.000, 22:41:56.213, 1541907716213
84, -9942.01, 13445.20, 0.00, 0.00, -187500.02, -187500.02, -187500.02, -187500.02, 0.050, 0.780, 0.600, 22:41:56.213, 1541907716213
85, -10083.68, 13085.96, 0.00, 0.00, -187500.02, -187500.02, -187500.02, -187500.02, 0.000, 0.000, 0.000, 22:41:56.213, 1541907716213
86, -9894.36, 13156.84, 0.00, 0.00, -187500.02, -187500.02, -187500.02, -187500.02, 0.000, 0.000, 0.000, 22:41:56.214, 1541907716214
87, -9759.96, 13574.30, 0.00, 0.00, -187500.02, -187500.02, -187500.02, -187500.02, 0.000, 0.000, 0.000, 22:41:56.214, 1541907716214
88, -9926.52, 13447.03, 0.00, 0.00, -187500.02, -187500.02, -187500.02, -187500.02, 0.000, 0.000, 0.000, 22:41:56.214, 1541907716214
89, -10068.79, 13117.25, 0.00, 0.00, -187500.02, -187500.02, -187500.02, -187500.02, 0.000, 0.000, 0.000, 22:41:56.214, 1541907716214
90, -9936.85, 13086.59, 0.00, 0.00, -187500.02, -187500.02, -187500.02, -187500.02, 0.000, 0.000, 0.000, 22:41:56.214, 1541907716214
91, -9726.99, 13545.92, 0.00, 0.00, -187500.02, -187500.02, -187500.02, -187500.02, 0.000, 0.000, 0.000, 22:41:56.214, 1541907716214
92, -9887.47, 13495.51, 0.00, 0.00, -187500.02, -187500.02, -187500.02, -187500.02, 0.000, 0.000, 0.000, 22:41:56.214, 1541907716214
93, -10078.47, 13180.49, 0.00, 0.00, -187500.02, -187500.02, -187500.02, -187500.02, 0.000, 0.000, 0.000, 22:41:56.214, 1541907716214
94, -10004.95, 13023.87, 0.00, 0.00, -187500.02, -187500.02, -187500.02, -187500.02, 0.044, 0.762, 0.582, 22:41:56.214, 1541907716214
95, -9751.33, 13467.19, 0.00, 0.00, -187500.02, -187500.02, -187500.02, -187500.02, 0.000, 0.000, 0.000, 22:41:56.214, 1541907716214
96, -9873.46, 13539.37, 0.00, 0.00, -187500.02, -187500.02, -187500.02, -187500.02, 0.000, 0.000, 0.000, 22:41:56.214, 1541907716214
