%OpenBCI Raw EEG Data
%Number of channels = 8
%Sample Rate = 250.0 Hz
%First Column = SampleIndex
%Last Column = Timestamp 
%Other Columns = EEG data in microvolts followed by Accel Data (in G) interleaved with Aux Data
150, -17.86, -29.15, -21.79, -23.87, -179049.22, -178678.70, -179078.03, -186088.89, 0.000, 0.000, 0.000, 21:06:49.761, 1541902009761
151, -17.86, -28.97, -21.84, -23.78, -179103.45, -178742.30, -179140.38, -186091.08, 0.000, 0.000, 0.000, 21:06:49.919, 1541902009919
152, -17.79, -28.92, -21.86, -23.96, -179233.67, -178851.50, -179272.36, -186095.64, 0.000, 0.000, 0.000, 21:06:49.919, 1541902009919
153, -17.88, -28.92, -21.86, -23.96, -179147.70, -178772.47, -179185.80, -186092.42, 0.000, 0.000, 0.000, 21:06:49.919, 1541902009919
154, -17.75, -29.01, -21.95, -23.92, -179036.86, -178694.88, -179081.34, -186088.45, 0.000, 0.000, 0.000, 21:06:49.919, 1541902009919
155, -17.57, -29.03, -21.86, -23.85, -179063.53, -178703.16, -179110.78, -186089.95, 0.000, 0.000, 0.000, 21:06:49.919, 1541902009919
156, -17.81, -29.06, -21.82, -23.89, -179141.27, -178772.00, -179187.41, -186092.02, 0.000, 0.000, 0.000, 21:06:49.920, 1541902009920
157, -17.75, -29.21, -21.77, -24.05, -179114.48, -178743.98, -179160.06, -186090.77, 0.046, 0.602, 0.752, 21:06:49.920, 1541902009920
158, -17.75, -29.26, -21.46, -23.83, -179075.75, -178706.19, -179120.75, -186090.63, 0.000, 0.000, 0.000, 21:06:49.920, 1541902009920
159, -17.90, -29.26, -21.66, -23.96, -179085.14, -178714.50, -179129.09, -186090.98, 0.000, 0.000, 0.000, 21:06:49.920, 1541902009920
160, -17.86, -29.08, -21.73, -24.16, -179159.08, -178783.44, -179202.64, -186093.17, 0.000, 0.000, 0.000, 21:06:49.920, 1541902009920
161, -17.84, -28.95, -21.93, -24.01, -179102.48, -178729.48, -179147.08, -186090.53, 0.000, 0.000, 0.000, 21:06:49.921, 1541902009921
162, -17.81, -28.92, -22.11, -24.05, -179023.03, -178696.16, -179077.59, -186088.53, 0.000, 0.000, 0.000, 21:06:49.921, 1541902009921
163, -17.79, -28.99, -21.82, -24.03, -179077.30, -178739.94, -179142.45, -186091.31, 0.000, 0.000, 0.000, 21:06:49.924, 1541902009924
164, -17.59, -29.03, -21.61, -23.85, -179204.92, -178847.00, -179268.81, -186096.14, 0.000, 0.000, 0.000, 21:06:49.925, 1541902009925
165, -17.75, -29.15, -21.73, -23.76, -179185.95, -178827.78, -179249.52, -186093.83, 0.000, 0.000, 0.000, 21:06:49.925, 1541902009925
166, -17.68, -29.10, -21.88, -23.94, -179108.59, -178752.84, -179171.11, -186092.14, 0.000, 0.000, 0.000, 21:06:49.926, 1541902009926
167, -17.66, -29.17, -21.77, -23.96, -179113.39, -178756.33, -179175.73, -186092.50, 0.052, 0.604, 0.752, 21:06:49.926, 1541902009926
168, -17.72, -29.26, -21.57, -23.94, -179145.77, -178784.73, -179206.92, -186092.97, 0.000, 0.000, 0.000, 21:06:49.927, 1541902009927
169, -17.70, -29.33, -21.61, -23.94, -179150.45, -178786.72, -179210.09, -186092.08, 0.000, 0.000, 0.000, 21:06:49.928, 1541902009928
170, -17.75, -29.19, -21.73, -23.89, -179088.47, -178726.42, -179146.97, -186090.25, 0.000, 0.000, 0.000, 21:06:49.928, 1541902009928
171, -17.88, -29.15, -21.70, -23.78, -179090.75, -178728.28, -179148.59, -186090.30, 0.000, 0.000, 0.000, 21:06:49.928, 1541902009928
172, -17.64, -29.10, -21.82, -23.60, -179132.00, -178766.50, -179188.88, -186092.95, 0.000, 0.000, 0.000, 21:06:49.929, 1541902009929
173, -17.72, -29.19, -21.82, -23.83, -179138.25, -178770.39, -179194.06, -186091.81, 0.000, 0.000, 0.000, 21:06:49.929, 1541902009929
174, -17.70, -29.03, -21.88, -24.05, -179092.50, -178725.91, -179147.92, -186089.75, 0.000, 0.000, 0.000, 21:06:49.930, 1541902009930
175, -17.75, -28.88, -21.84, -23.89, -179039.33, -178704.45, -179100.19, -186088.25, 0.000, 0.000, 0.000, 21:06:49.930, 1541902009930
176, -17.97, -28.90, -21.99, -24.07, -179039.67, -178720.16, -179115.19, -186089.11, 0.000, 0.000, 0.000, 21:06:49.930, 1541902009930
177, -17.90, -28.99, -22.13, -23.96, -179142.20, -178792.58, -179218.11, -186092.30, 0.046, 0.604, 0.750, 21:06:49.930, 1541902009930
178, -17.75, -29.10, -22.11, -23.85, -179127.14, -178778.52, -179203.05, -186091.70, 0.000, 0.000, 0.000, 21:06:49.931, 1541902009931
179, -17.59, -29.12, -21.84, -23.94, -179049.36, -178701.67, -179124.34, -186089.20, 0.000, 0.000, 0.000, 21:06:49.931, 1541902009931
180, -17.90, -29.15, -21.82, -24.12, -179048.53, -178699.22, -179121.75, -186089.44, 0.000, 0.000, 0.000, 21:06:49.931, 1541902009931
181, -17.84, -28.97, -21.93, -23.96, -179120.08, -178769.72, -179193.13, -186092.19, 0.000, 0.000, 0.000, 21:06:49.931, 1541902009931
182, -17.79, -29.21, -21.86, -23.96, -179075.67, -178741.63, -179155.66, -186089.80, 0.000, 0.000, 0.000, 21:06:49.931, 1541902009931
183, -17.93, -29.24, -21.82, -24.12, -179074.55, -178732.05, -179157.34, -186090.45, 0.000, 0.000, 0.000, 21:06:49.932, 1541902009932
184, -18.10, -29.46, -21.82, -23.87, -179070.08, -178724.00, -179151.39, -186090.66, 0.000, 0.000, 0.000, 21:06:49.932, 1541902009932
185, -17.86, -29.33, -21.75, -23.87, -179177.83, -178825.95, -179257.83, -186094.61, 0.000, 0.000, 0.000, 21:06:49.932, 1541902009932
186, -17.93, -29.12, -21.84, -23.78, -179153.86, -178800.83, -179233.69, -186093.13, 0.000, 0.000, 0.000, 21:06:49.932, 1541902009932
85, -17.68, -29.03, -22.02, -23.96, -179083.63, -178768.44, -179173.67, -186090.58, 0.000, 0.000, 0.000, 21:06:52.701, 1541902012701
86, -17.77, -29.19, -21.82, -24.01, -178971.16, -178699.06, -179068.41, -186086.92, 0.000, 0.000, 0.000, 21:06:52.701, 1541902012701
87, -17.61, -29.37, -21.61, -23.94, -178936.64, -178679.69, -179045.80, -186086.45, 0.000, 0.000, 0.000, 21:06:52.701, 1541902012701
88, -17.59, -29.06, -21.93, -23.78, -179001.88, -178732.03, -179121.59, -186089.13, 0.000, 0.000, 0.000, 21:06:52.701, 1541902012701
89, -17.64, -29.10, -21.77, -23.74, -179140.83, -178848.39, -179259.94, -186094.14, 0.050, 0.612, 0.746, 21:06:52.701, 1541902012701
90, -17.68, -29.08, -21.73, -23.85, -179052.53, -178761.92, -179171.27, -186090.73, 0.000, 0.000, 0.000, 21:06:52.701, 1541902012701
91, -17.72, -29.08, -21.70, -23.92, -178975.59, -178686.48, -179093.25, -186087.63, 0.000, 0.000, 0.000, 21:06:52.701, 1541902012701
92, -17.70, -28.81, -21.88, -23.94, -178988.31, -178698.44, -179105.55, -186088.28, 0.000, 0.000, 0.000, 21:06:52.702, 1541902012702
93, -17.90, -28.92, -21.82, -23.67, -179078.95, -178784.83, -179195.52, -186091.16, 0.000, 0.000, 0.000, 21:06:52.702, 1541902012702
94, -17.79, -29.28, -21.93, -23.85, -179038.63, -178745.19, -179153.55, -186089.13, 0.000, 0.000, 0.000, 21:06:52.702, 1541902012702
95, -17.46, -29.12, -21.97, -23.76, -179007.14, -178714.64, -179121.53, -186088.77, 0.000, 0.000, 0.000, 21:06:52.702, 1541902012702
96, -17.68, -28.95, -21.84, -23.83, -179007.98, -178713.28, -179121.55, -186089.23, 0.000, 0.000, 0.000, 21:06:52.702, 1541902012702
97, -17.81, -28.92, -21.82, -23.96, -179078.95, -178779.06, -179191.94, -186091.59, 0.000, 0.000, 0.000, 21:06:52.702, 1541902012702
98, -17.81, -29.15, -21.82, -23.94, -179081.44, -178780.00, -179193.19, -186091.08, 0.000, 0.000, 0.000, 21:06:52.702, 1541902012702
99, -17.99, -29.19, -21.82, -23.94, -179035.52, -178736.17, -179147.69, -186090.22, 0.054, 0.606, 0.740, 21:06:52.703, 1541902012703
100, -17.79, -28.99, -21.88, -23.76, -179017.31, -178716.88, -179128.86, -186089.59, 0.000, 0.000, 0.000, 21:06:52.703, 1541902012703
101, -17.88, -28.99, -21.70, -23.87, -179071.02, -178767.08, -179182.08, -186091.44, 0.000, 0.000, 0.000, 21:06:52.703, 1541902012703
102, -17.66, -29.15, -21.75, -23.87, -179109.86, -178803.41, -179219.56, -186092.55, 0.000, 0.000, 0.000, 21:06:52.703, 1541902012703
103, -17.86, -29.12, -21.82, -23.98, -179021.63, -178727.66, -179133.84, -186089.75, 0.000, 0.000, 0.000, 21:06:52.703, 1541902012703
104, -17.95, -29.15, -21.88, -23.98, -179029.73, -178741.06, -179148.88, -186090.05, 0.000, 0.000, 0.000, 21:06:52.703, 1541902012703
105, -17.84, -28.99, -21.84, -23.83, -179073.77, -178773.20, -179192.52, -186091.88, 0.000, 0.000, 0.000, 21:06:52.704, 1541902012704
106, -17.26, -29.15, -21.84, -23.98, -179074.45, -178780.25, -179194.23, -186091.34, 0.000, 0.000, 0.000, 21:06:52.704, 1541902012704
107, -17.48, -29.01, -22.11, -23.94, -178991.16, -178728.14, -179121.89, -186088.44, 0.000, 0.000, 0.000, 21:06:52.704, 1541902012704
108, -17.79, -29.03, -21.82, -23.72, -178952.34, -178709.64, -179096.34, -186087.30, 0.000, 0.000, 0.000, 21:06:52.704, 1541902012704
109, -17.90, -28.83, -21.86, -23.72, -179043.08, -178773.88, -179192.95, -186091.88, 0.050, 0.600, 0.744, 21:06:52.704, 1541902012704
110, -17.95, -29.03, -21.73, -23.72, -179075.63, -178799.13, -179225.09, -186091.72, 0.000, 0.000, 0.000, 21:06:52.704, 1541902012704
111, -17.75, -29.10, -21.66, -23.98, -179008.23, -178733.13, -179156.28, -186089.53, 0.000, 0.000, 0.000, 21:06:52.704, 1541902012704
112, -17.61, -29.06, -21.84, -24.12, -178993.13, -178727.20, -179143.23, -186089.69, 0.000, 0.000, 0.000, 21:06:52.704, 1541902012704
113, -17.70, -29.12, -21.79, -23.72, -179044.59, -178782.23, -179202.28, -186092.06, 0.000, 0.000, 0.000, 21:06:52.704, 1541902012704
114, -17.81, -29.03, -21.88, -23.78, -179139.59, -178864.22, -179297.34, -186095.44, 0.000, 0.000, 0.000, 21:06:52.704, 1541902012704
115, -18.02, -28.99, -21.82, -23.83, -179059.75, -178787.33, -179217.27, -186092.48, 0.000, 0.000, 0.000, 21:06:52.704, 1541902012704
16, -17.93, -28.97, -21.95, -23.56, -178979.70, -178717.92, -179100.31, -186088.14, 0.000, 0.000, 0.000, 21:06:55.588, 1541902015588
17, -17.79, -28.99, -21.88, -23.80, -179053.61, -178781.41, -179183.95, -186091.72, 0.000, 0.000, 0.000, 21:06:55.588, 1541902015588
18, -17.75, -29.26, -21.70, -24.03, -179097.41, -178807.33, -179227.72, -186092.70, 0.000, 0.000, 0.000, 21:06:55.588, 1541902015588
19, -17.46, -29.33, -21.68, -24.01, -179030.88, -178743.00, -179160.17, -186090.89, 0.000, 0.000, 0.000, 21:06:55.589, 1541902015589
20, -17.59, -29.21, -21.88, -23.87, -179022.95, -178734.69, -179151.44, -186090.52, 0.000, 0.000, 0.000, 21:06:55.589, 1541902015589
21, -17.66, -28.97, -22.04, -23.87, -179062.23, -178771.22, -179190.78, -186092.53, 0.050, 0.598, 0.752, 21:06:55.589, 1541902015589
22, -17.77, -29.01, -22.20, -24.14, -179073.66, -178785.98, -179202.33, -186092.19, 0.000, 0.000, 0.000, 21:06:55.589, 1541902015589
23, -17.57, -29.03, -22.08, -23.83, -178996.98, -178741.02, -179131.70, -186089.70, 0.000, 0.000, 0.000, 21:06:55.589, 1541902015589
24, -17.79, -28.90, -21.88, -23.78, -178974.56, -178699.89, -179111.55, -186089.33, 0.000, 0.000, 0.000, 21:06:55.589, 1541902015589
25, -17.90, -29.15, -21.70, -23.83, -179004.83, -178724.44, -179141.77, -186090.38, 0.000, 0.000, 0.000, 21:06:55.589, 1541902015589
26, -17.77, -29.21, -21.77, -23.89, -179070.23, -178786.03, -179205.42, -186091.77, 0.000, 0.000, 0.000, 21:06:55.590, 1541902015590
27, -17.86, -29.10, -21.88, -23.67, -179016.66, -178733.95, -179151.39, -186089.67, 0.000, 0.000, 0.000, 21:06:55.590, 1541902015590
28, -17.64, -28.92, -21.88, -23.74, -178973.11, -178694.80, -179107.52, -186088.64, 0.000, 0.000, 0.000, 21:06:55.590, 1541902015590
29, -17.93, -29.08, -21.82, -24.05, -178981.41, -178714.80, -179115.50, -186089.22, 0.000, 0.000, 0.000, 21:06:55.590, 1541902015590
30, -17.97, -29.26, -21.86, -23.85, -179034.25, -178769.72, -179168.20, -186090.69, 0.000, 0.000, 0.000, 21:06:55.590, 1541902015590
31, -18.08, -28.88, -21.73, -23.78, -178980.45, -178736.66, -179113.95, -186088.02, 0.048, 0.604, 0.752, 21:06:55.590, 1541902015590
32, -17.99, -28.97, -21.86, -23.96, -178949.78, -178687.23, -179082.38, -186087.23, 0.000, 0.000, 0.000, 21:06:55.590, 1541902015590
33, -17.66, -28.86, -21.95, -23.80, -178974.97, -178708.98, -179106.17, -186088.13, 0.000, 0.000, 0.000, 21:06:55.590, 1541902015590
34, -17.59, -28.99, -21.86, -23.78, -179080.53, -178810.86, -179211.30, -186092.34, 0.000, 0.000, 0.000, 21:06:55.590, 1541902015590
35, -17.79, -29.06, -21.86, -24.16, -179040.86, -178771.39, -179170.02, -186090.42, 0.000, 0.000, 0.000, 21:06:55.590, 1541902015590
36, -17.68, -29.19, -21.84, -24.25, -178990.58, -178721.88, -179118.97, -186089.16, 0.000, 0.000, 0.000, 21:06:55.591, 1541902015591
37, -17.79, -29.28, -21.77, -23.98, -178969.66, -178701.28, -179098.23, -186088.53, 0.000, 0.000, 0.000, 21:06:55.591, 1541902015591
38, -17.90, -29.03, -21.66, -23.80, -179052.78, -178779.13, -179181.05, -186091.78, 0.000, 0.000, 0.000, 21:06:55.591, 1541902015591
39, -17.86, -29.01, -21.86, -23.96, -179028.97, -178758.98, -179157.30, -186090.00, 0.000, 0.000, 0.000, 21:06:55.591, 1541902015591
40, -17.93, -28.86, -21.86, -23.78, -178964.78, -178711.73, -179099.84, -186087.56, 0.000, 0.000, 0.000, 21:06:55.591, 1541902015591
41, -17.84, -29.03, -21.73, -23.74, -178944.70, -178696.95, -179081.67, -186087.19, 0.052, 0.604, 0.750, 21:06:55.591, 1541902015591
42, -17.77, -29.21, -21.95, -23.63, -179047.59, -178789.30, -179183.56, -186091.44, 0.000, 0.000, 0.000, 21:06:55.591, 1541902015591
43, -17.81, -29.08, -21.84, -23.60, -179088.52, -178823.16, -179223.59, -186092.17, 0.000, 0.000, 0.000, 21:06:55.591, 1541902015591
44, -17.52, -28.83, -21.82, -23.69, -178958.25, -178718.63, -179096.45, -186087.50, 0.000, 0.000, 0.000, 21:06:55.592, 1541902015592
45, -17.75, -28.97, -21.82, -23.72, -178905.34, -178675.39, -179049.41, -186085.84, 0.000, 0.000, 0.000, 21:06:55.592, 1541902015592
46, -17.99, -29.12, -21.75, -23.67, -179021.47, -178770.14, -179165.47, -186090.72, 0.000, 0.000, 0.000, 21:06:55.593, 1541902015593
47, -17.81, -29.06, -21.61, -23.89, -179064.09, -178809.17, -179207.03, -186091.13, 0.000, 0.000, 0.000, 21:06:55.593, 1541902015593
48, -17.81, -29.10, -21.77, -23.83, -179019.97, -178765.25, -179161.52, -186089.78, 0.000, 0.000, 0.000, 21:06:55.593, 1541902015593
49, -17.84, -29.10, -21.88, -23.85, -178976.56, -178722.73, -179117.44, -186087.70, 0.000, 0.000, 0.000, 21:06:55.593, 1541902015593
50, -17.57, -29.10, -21.93, -24.10, -179016.81, -178761.28, -179157.58, -186089.91, 0.000, 0.000, 0.000, 21:06:55.593, 1541902015593
51, -17.43, -29.03, -21.77, -24.07, -179126.14, -178865.67, -179265.95, -186093.33, 0.048, 0.594, 0.756, 21:06:55.593, 1541902015593
52, -17.59, -28.97, -21.95, -23.96, -179037.25, -178778.45, -179175.91, -186090.02, 0.000, 0.000, 0.000, 21:06:55.593, 1541902015593
53, -17.64, -28.92, -21.95, -23.92, -178994.64, -178736.95, -179132.75, -186088.97, 0.000, 0.000, 0.000, 21:06:55.593, 1541902015593
54, -17.72, -29.12, -21.93, -23.89, -179052.38, -178792.20, -179190.05, -186091.94, 0.000, 0.000, 0.000, 21:06:55.594, 1541902015594
55, -18.04, -29.01, -21.93, -24.12, -179080.58, -178816.61, -179217.17, -186092.42, 0.000, 0.000, 0.000, 21:06:55.594, 1541902015594
56, -18.08, -29.26, -21.82, -24.14, -179019.45, -178756.38, -179156.53, -186089.83, 0.000, 0.000, 0.000, 21:06:55.594, 1541902015594
57, -18.02, -29.21, -21.93, -23.87, -178980.78, -178718.98, -179117.78, -186088.50, 0.000, 0.000, 0.000, 21:06:55.594, 1541902015594
58, -18.08, -29.10, -22.02, -23.83, -179015.86, -178751.30, -179152.59, -186089.59, 0.000, 0.000, 0.000, 21:06:55.594, 1541902015594
59, -17.70, -29.03, -21.86, -23.96, -179129.89, -178859.48, -179265.16, -186094.16, 0.000, 0.000, 0.000, 21:06:55.594, 1541902015594
60, -17.81, -28.97, -22.04, -23.74, -179095.41, -178824.50, -179229.22, -186092.30, 0.000, 0.000, 0.000, 21:06:55.594, 1541902015594
61, -17.97, -29.01, -21.95, -23.63, -178992.88, -178724.30, -179126.03, -186088.53, 0.044, 0.596, 0.754, 21:06:55.595, 1541902015595
62, -18.04, -29.08, -22.06, -23.74, -178996.92, -178727.47, -179129.31, -186089.00, 0.000, 0.000, 0.000, 21:06:55.595, 1541902015595
63, -17.90, -28.88, -22.17, -23.76, -179032.64, -178760.17, -179164.94, -186090.31, 0.000, 0.000, 0.000, 21:06:55.595, 1541902015595
64, -17.52, -29.10, -21.90, -23.89, -179041.31, -178772.13, -179174.73, -186089.83, 0.000, 0.000, 0.000, 21:06:55.595, 1541902015595
65, -17.70, -29.21, -21.99, -23.72, -178964.11, -178712.34, -179104.77, -186087.44, 0.000, 0.000, 0.000, 21:06:55.595, 1541902015595
66, -18.15, -29.10, -21.93, -23.74, -178944.73, -178711.63, -179086.39, -186087.30, 0.000, 0.000, 0.000, 21:06:55.595, 1541902015595
67, -17.97, -29.15, -21.70, -23.69, -179053.84, -178807.52, -179194.47, -186092.14, 0.000, 0.000, 0.000, 21:06:55.596, 1541902015596
68, -17.99, -28.99, -21.84, -23.92, -179102.89, -178844.81, -179242.61, -186093.48, 0.000, 0.000, 0.000, 21:06:55.596, 1541902015596
69, -18.08, -29.10, -21.90, -23.94, -179020.59, -178768.48, -179160.09, -186090.53, 0.000, 0.000, 0.000, 21:06:55.596, 1541902015596
206, -17.81, -28.88, -21.88, -23.96, -179090.48, -178787.44, -179196.16, -186091.09, 0.000, 0.000, 0.000, 21:06:58.168, 1541902018168
207, -17.68, -29.08, -21.97, -23.85, -179074.73, -178753.23, -179179.16, -186089.69, 0.000, 0.000, 0.000, 21:06:58.348, 1541902018348
208, -17.59, -29.03, -21.90, -23.92, -179027.50, -178707.73, -179131.09, -186088.23, 0.052, 0.604, 0.752, 21:06:58.349, 1541902018349
209, -17.81, -28.97, -21.70, -23.83, -179037.11, -178716.55, -179140.19, -186088.80, 0.000, 0.000, 0.000, 21:06:58.349, 1541902018349
210, -17.90, -29.15, -21.73, -23.63, -179112.95, -178787.81, -179214.77, -186092.53, 0.000, 0.000, 0.000, 21:06:58.349, 1541902018349
211, -17.81, -28.97, -21.64, -24.23, -179116.02, -178788.48, -179216.28, -186091.28, 0.000, 0.000, 0.000, 21:06:58.349, 1541902018349
212, -17.55, -28.97, -21.82, -24.27, -179032.69, -178707.84, -179132.17, -186087.91, 0.000, 0.000, 0.000, 21:06:58.349, 1541902018349
213, -17.79, -28.99, -22.04, -23.96, -179023.77, -178698.80, -179123.05, -186088.25, 0.000, 0.000, 0.000, 21:06:58.349, 1541902018349
214, -17.79, -28.92, -22.04, -23.89, -179078.13, -178749.91, -179177.30, -186090.83, 0.000, 0.000, 0.000, 21:06:58.349, 1541902018349
215, -17.84, -28.92, -21.75, -24.01, -179124.42, -178793.52, -179222.92, -186091.05, 0.000, 0.000, 0.000, 21:06:58.349, 1541902018349
216, -17.84, -28.97, -21.84, -24.03, -179046.05, -178731.50, -179148.38, -186088.55, 0.000, 0.000, 0.000, 21:06:58.349, 1541902018349
217, -17.81, -28.86, -21.82, -23.85, -178999.61, -178710.55, -179117.52, -186087.56, 0.000, 0.000, 0.000, 21:06:58.349, 1541902018349
218, -17.57, -28.99, -21.88, -23.92, -179057.56, -178758.11, -179177.30, -186090.66, 0.048, 0.600, 0.750, 21:06:58.349, 1541902018349
219, -17.95, -29.08, -21.88, -23.80, -179139.06, -178824.59, -179257.91, -186092.86, 0.000, 0.000, 0.000, 21:06:58.349, 1541902018349
220, -17.84, -28.79, -21.95, -23.72, -179076.56, -178763.23, -179194.91, -186090.61, 0.000, 0.000, 0.000, 21:06:58.349, 1541902018349
221, -17.68, -28.99, -21.93, -23.96, -179018.47, -178709.83, -179136.73, -186088.38, 0.000, 0.000, 0.000, 21:06:58.350, 1541902018350
222, -17.64, -29.15, -21.95, -23.76, -179018.56, -178723.38, -179136.31, -186088.34, 0.000, 0.000, 0.000, 21:06:58.350, 1541902018350
223, -17.88, -29.08, -21.66, -23.78, -179123.44, -178814.11, -179240.39, -186092.44, 0.000, 0.000, 0.000, 21:06:58.350, 1541902018350
224, -17.79, -29.06, -21.66, -24.25, -179064.95, -178754.61, -179180.11, -186089.80, 0.000, 0.000, 0.000, 21:06:58.351, 1541902018351
225, -17.75, -29.03, -21.86, -24.01, -179027.16, -178716.42, -179141.06, -186088.19, 0.000, 0.000, 0.000, 21:06:58.352, 1541902018352
226, -17.90, -28.97, -22.13, -23.96, -179057.52, -178744.66, -179171.59, -186089.83, 0.000, 0.000, 0.000, 21:06:58.352, 1541902018352
227, -17.72, -28.95, -21.95, -23.83, -179146.03, -178830.06, -179259.84, -186093.78, 0.000, 0.000, 0.000, 21:06:58.352, 1541902018352
228, -17.90, -28.92, -21.70, -24.05, -179080.42, -178766.03, -179192.91, -186091.23, 0.000, 0.000, 0.000, 21:06:58.352, 1541902018352
229, -17.70, -29.10, -21.66, -24.01, -178999.56, -178695.03, -179111.70, -186088.17, 0.042, 0.594, 0.760, 21:06:58.352, 1541902018352
230, -17.93, -29.24, -21.73, -23.94, -179013.59, -178735.55, -179132.73, -186089.23, 0.000, 0.000, 0.000, 21:06:58.352, 1541902018352
231, -17.64, -29.30, -21.70, -23.85, -179155.13, -178850.66, -179275.47, -186095.50, 0.000, 0.000, 0.000, 21:06:58.353, 1541902018353
232, -17.66, -29.24, -21.68, -23.67, -179135.44, -178827.30, -179254.70, -186093.16, 0.000, 0.000, 0.000, 21:06:58.355, 1541902018355
233, -17.99, -28.92, -21.73, -23.94, -179061.88, -178755.59, -179179.94, -186091.23, 0.000, 0.000, 0.000, 21:06:58.355, 1541902018355
234, -17.90, -28.92, -21.70, -23.89, -179084.27, -178776.64, -179201.19, -186092.89, 0.000, 0.000, 0.000, 21:06:58.355, 1541902018355
235, -17.86, -28.97, -21.77, -23.85, -179122.09, -178811.98, -179239.03, -186094.34, 0.000, 0.000, 0.000, 21:06:58.356, 1541902018356
236, -17.72, -29.12, -21.77, -23.89, -179105.38, -178805.23, -179221.73, -186091.77, 0.000, 0.000, 0.000, 21:06:58.356, 1541902018356
237, -17.86, -29.19, -21.75, -23.94, -179019.81, -178727.31, -179135.44, -186088.64, 0.000, 0.000, 0.000, 21:06:58.356, 1541902018356
238, -17.81, -29.03, -22.06, -23.92, -179007.83, -178706.89, -179123.75, -186088.75, 0.000, 0.000, 0.000, 21:06:58.356, 1541902018356
239, -17.86, -28.97, -22.11, -23.76, -179079.17, -178774.09, -179193.97, -186091.75, 0.038, 0.594, 0.756, 21:06:58.356, 1541902018356
240, -17.86, -29.15, -22.04, -23.65, -179115.05, -178806.59, -179228.50, -186092.06, 0.000, 0.000, 0.000, 21:06:58.356, 1541902018356
241, -17.93, -29.03, -21.88, -23.74, -179072.61, -178765.77, -179186.17, -186090.94, 0.000, 0.000, 0.000, 21:06:58.356, 1541902018356
242, -17.75, -29.08, -21.82, -23.74, -179038.55, -178732.20, -179152.20, -186089.70, 0.000, 0.000, 0.000, 21:06:58.356, 1541902018356
243, -17.81, -29.19, -21.93, -23.94, -179114.89, -178805.05, -179227.97, -186093.28, 0.000, 0.000, 0.000, 21:06:58.356, 1541902018356
244, -17.81, -28.99, -21.88, -23.76, -179158.91, -178845.72, -179271.06, -186094.56, 0.000, 0.000, 0.000, 21:06:58.356, 1541902018356
245, -17.77, -29.03, -22.06, -23.83, -179095.30, -178783.16, -179206.92, -186091.98, 0.000, 0.000, 0.000, 21:06:58.357, 1541902018357
246, -17.70, -29.15, -22.15, -23.78, -179046.23, -178735.47, -179157.36, -186090.33, 0.000, 0.000, 0.000, 21:06:58.357, 1541902018357
247, -17.59, -29.10, -22.04, -23.96, -179054.25, -178742.30, -179165.08, -186090.53, 0.000, 0.000, 0.000, 21:06:58.357, 1541902018357
248, -17.48, -29.01, -21.93, -24.10, -179128.94, -178812.41, -179238.61, -186092.53, 0.000, 0.000, 0.000, 21:06:58.357, 1541902018357
198, -17.79, -29.15, -21.66, -23.94, -178959.19, -178775.44, -179205.94, -186091.23, 0.000, 0.000, 0.000, 21:06:59.165, 1541902019165
199, -17.86, -28.92, -21.55, -23.78, -178975.94, -178790.95, -179222.55, -186092.84, 0.000, 0.000, 0.000, 21:06:59.304, 1541902019304
200, -17.79, -28.88, -21.82, -23.74, -179023.11, -178835.25, -179269.75, -186094.06, 0.000, 0.000, 0.000, 21:06:59.304, 1541902019304
201, -17.70, -28.86, -21.88, -23.83, -179070.25, -178879.08, -179315.77, -186095.08, 0.000, 0.000, 0.000, 21:06:59.304, 1541902019304
202, -17.79, -29.10, -21.59, -23.89, -179001.55, -178811.64, -179245.81, -186093.31, 0.000, 0.000, 0.000, 21:06:59.305, 1541902019305
203, -17.75, -29.03, -21.46, -23.74, -178890.53, -178702.75, -179134.27, -186088.59, 0.000, 0.000, 0.000, 21:06:59.305, 1541902019305
204, -17.75, -28.86, -21.44, -23.94, -178938.45, -178747.92, -179182.02, -186090.94, 0.000, 0.000, 0.000, 21:06:59.305, 1541902019305
205, -17.57, -28.97, -21.66, -24.05, -179036.70, -178841.48, -179279.06, -186093.78, 0.000, 0.000, 0.000, 21:06:59.305, 1541902019305
206, -17.68, -29.01, -21.82, -23.92, -178986.77, -178793.14, -179228.50, -186092.13, 0.052, 0.596, 0.754, 21:06:59.305, 1541902019305
207, -17.77, -28.99, -22.02, -23.67, -178945.91, -178752.17, -179187.25, -186090.38, 0.000, 0.000, 0.000, 21:06:59.305, 1541902019305
208, -17.64, -29.03, -21.90, -23.56, -178968.11, -178772.31, -179209.13, -186091.61, 0.000, 0.000, 0.000, 21:06:59.305, 1541902019305
209, -17.70, -29.08, -21.99, -23.96, -179063.50, -178863.28, -179303.78, -186094.67, 0.000, 0.000, 0.000, 21:06:59.305, 1541902019305
210, -17.90, -29.46, -22.02, -24.03, -178966.77, -178768.58, -179206.16, -186090.47, 0.000, 0.000, 0.000, 21:06:59.305, 1541902019305
211, -17.84, -29.37, -21.75, -23.78, -178906.06, -178709.33, -179144.69, -186088.59, 0.000, 0.000, 0.000, 21:06:59.305, 1541902019305
212, -17.70, -29.10, -21.79, -23.96, -178960.11, -178761.11, -179198.38, -186091.13, 0.000, 0.000, 0.000, 21:06:59.305, 1541902019305
213, -18.02, -29.12, -21.99, -23.72, -179071.02, -178867.73, -179308.75, -186095.08, 0.000, 0.000, 0.000, 21:06:59.305, 1541902019305
214, -17.81, -29.17, -21.84, -23.76, -179037.67, -178834.72, -179274.44, -186093.64, 0.000, 0.000, 0.000, 21:06:59.305, 1541902019305
215, -17.75, -29.19, -21.70, -23.72, -178894.80, -178708.88, -179131.20, -186088.48, 0.000, 0.000, 0.000, 21:06:59.305, 1541902019305
216, -17.79, -29.01, -21.84, -23.85, -178902.63, -178714.84, -179137.83, -186088.92, 0.050, 0.590, 0.752, 21:06:59.305, 1541902019305
217, -17.84, -29.03, -21.86, -23.85, -178949.05, -178750.50, -179182.80, -186090.25, 0.000, 0.000, 0.000, 21:06:59.305, 1541902019305
218, -17.75, -29.15, -21.88, -23.96, -178948.53, -178749.31, -179181.20, -186089.39, 0.000, 0.000, 0.000, 21:06:59.305, 1541902019305
219, -17.86, -28.99, -21.95, -23.92, -178881.77, -178686.70, -179114.06, -186087.75, 0.000, 0.000, 0.000, 21:06:59.306, 1541902019306
220, -17.90, -29.01, -21.90, -23.78, -178865.09, -178699.98, -179102.88, -186087.47, 0.000, 0.000, 0.000, 21:06:59.306, 1541902019306
221, -17.86, -28.99, -22.04, -23.96, -178942.92, -178763.34, -179184.09, -186090.69, 0.000, 0.000, 0.000, 21:06:59.306, 1541902019306
222, -17.59, -28.92, -21.95, -24.03, -179011.58, -178821.75, -179252.52, -186092.03, 0.000, 0.000, 0.000, 21:06:59.306, 1541902019306
223, -17.72, -29.06, -22.02, -23.96, -178929.64, -178741.48, -179170.38, -186089.98, 0.000, 0.000, 0.000, 21:06:59.306, 1541902019306
224, -17.97, -28.90, -21.93, -23.83, -178880.38, -178712.72, -179126.41, -186087.67, 0.000, 0.000, 0.000, 21:06:59.306, 1541902019306
225, -17.70, -28.88, -21.61, -23.96, -178931.63, -178773.16, -179192.23, -186090.00, 0.000, 0.000, 0.000, 21:06:59.306, 1541902019306
226, -17.86, -29.10, -21.73, -24.07, -179006.20, -178829.03, -179267.33, -186092.77, 0.050, 0.598, 0.744, 21:06:59.306, 1541902019306
227, -17.97, -29.10, -21.77, -23.92, -178905.34, -178745.70, -179164.97, -186089.53, 0.000, 0.000, 0.000, 21:06:59.306, 1541902019306
228, -17.90, -29.10, -21.84, -23.74, -178940.89, -178770.94, -179199.38, -186091.39, 0.000, 0.000, 0.000, 21:06:59.306, 1541902019306
229, -17.90, -29.15, -21.93, -24.05, -178980.48, -178804.58, -179239.02, -186093.06, 0.000, 0.000, 0.000, 21:06:59.306, 1541902019306
230, -17.75, -28.99, -21.84, -24.21, -179029.38, -178850.58, -179286.89, -186093.31, 0.000, 0.000, 0.000, 21:06:59.306, 1541902019306
231, -17.57, -28.90, -21.70, -23.94, -178953.72, -178777.83, -179210.69, -186090.94, 0.000, 0.000, 0.000, 21:06:59.306, 1541902019306
232, -17.86, -28.86, -21.75, -23.87, -178889.47, -178714.39, -179146.08, -186088.30, 0.000, 0.000, 0.000, 21:06:59.306, 1541902019306
137, -17.86, -29.26, -22.04, -24.05, -178871.73, -178704.78, -179090.80, -186085.89, 0.000, 0.000, 0.000, 21:07:01.189, 1541902021189
138, -18.37, -29.33, -21.88, -23.72, -178908.81, -178730.08, -179127.48, -186087.19, 0.000, 0.000, 0.000, 21:07:01.189, 1541902021189
139, -18.02, -29.15, -21.90, -23.63, -179018.58, -178829.23, -179236.16, -186091.66, 0.000, 0.000, 0.000, 21:07:01.189, 1541902021189
140, -17.72, -29.28, -21.97, -23.76, -179002.47, -178812.31, -179218.53, -186091.25, 0.058, 0.588, 0.762, 21:07:01.189, 1541902021189
141, -17.93, -29.17, -22.02, -23.72, -178884.84, -178697.36, -179099.42, -186086.36, 0.000, 0.000, 0.000, 21:07:01.190, 1541902021190
142, -17.90, -28.97, -21.93, -23.94, -178883.42, -178693.92, -179096.67, -186085.94, 0.000, 0.000, 0.000, 21:07:01.191, 1541902021191
143, -17.70, -29.06, -21.77, -23.89, -178989.98, -178795.55, -179203.08, -186090.22, 0.000, 0.000, 0.000, 21:07:01.191, 1541902021191
144, -17.86, -29.12, -21.93, -24.07, -178985.88, -178789.91, -179198.16, -186089.38, 0.000, 0.000, 0.000, 21:07:01.191, 1541902021191
145, -18.02, -28.97, -21.97, -23.92, -178899.16, -178705.86, -179110.63, -186086.36, 0.000, 0.000, 0.000, 21:07:01.191, 1541902021191
146, -17.70, -29.03, -21.88, -23.94, -178897.20, -178703.91, -179109.08, -186086.47, 0.000, 0.000, 0.000, 21:07:01.192, 1541902021192
147, -17.79, -29.06, -21.99, -23.74, -178981.44, -178783.97, -179193.28, -186089.42, 0.000, 0.000, 0.000, 21:07:01.192, 1541902021192
148, -17.81, -29.03, -21.75, -23.83, -178998.39, -178798.66, -179209.02, -186089.59, 0.000, 0.000, 0.000, 21:07:01.193, 1541902021193
149, -17.59, -28.99, -21.77, -24.05, -178929.73, -178732.30, -179140.11, -186087.81, 0.000, 0.000, 0.000, 21:07:01.194, 1541902021194
150, -17.79, -29.12, -21.77, -23.85, -178895.73, -178698.44, -179105.58, -186086.94, 0.054, 0.584, 0.764, 21:07:01.194, 1541902021194
152, -17.86, -28.88, -21.79, -24.01, -178966.61, -178764.28, -179175.28, -186088.03, 0.000, 0.000, 0.000, 21:07:01.194, 1541902021194
154, -17.39, -29.15, -21.88, -23.89, -178843.31, -178662.14, -179050.41, -186083.78, 0.000, 0.000, 0.000, 21:07:01.194, 1541902021194
155, -17.61, -29.06, -21.93, -23.69, -178923.36, -178728.39, -179129.27, -186087.47, 0.000, 0.000, 0.000, 21:07:01.195, 1541902021195
156, -17.86, -29.03, -21.82, -23.74, -178974.56, -178775.58, -179179.77, -186088.69, 0.000, 0.000, 0.000, 21:07:01.195, 1541902021195
157, -17.95, -29.01, -21.88, -23.78, -178952.63, -178754.45, -179156.47, -186087.52, 0.000, 0.000, 0.000, 21:07:01.196, 1541902021196
158, -17.70, -28.97, -21.95, -23.92, -178920.88, -178722.44, -179123.66, -186086.63, 0.000, 0.000, 0.000, 21:07:01.196, 1541902021196
159, -17.81, -28.77, -21.86, -23.83, -178900.42, -178700.89, -179102.72, -186086.64, 0.000, 0.000, 0.000, 21:07:01.197, 1541902021197
160, -17.93, -28.65, -21.97, -23.83, -178949.36, -178746.88, -179151.94, -186087.67, 0.052, 0.584, 0.762, 21:07:01.197, 1541902021197
161, -17.79, -28.92, -22.02, -23.78, -178900.92, -178698.77, -179102.91, -186085.39, 0.000, 0.000, 0.000, 21:07:01.198, 1541902021198
162, -17.75, -28.95, -21.95, -23.85, -178900.47, -178697.97, -179101.86, -186085.95, 0.000, 0.000, 0.000, 21:07:01.198, 1541902021198
163, -17.88, -28.99, -21.90, -23.89, -178941.94, -178736.33, -179142.72, -186088.64, 0.000, 0.000, 0.000, 21:07:01.198, 1541902021198
164, -18.19, -29.01, -21.73, -23.69, -179031.47, -178822.53, -179232.98, -186092.59, 0.000, 0.000, 0.000, 21:07:01.199, 1541902021199
165, -17.95, -28.81, -21.97, -23.87, -178968.59, -178760.58, -179168.31, -186088.34, 0.000, 0.000, 0.000, 21:07:01.199, 1541902021199
166, -17.68, -29.03, -21.88, -24.03, -178904.20, -178711.88, -179104.34, -186085.84, 0.000, 0.000, 0.000, 21:07:01.199, 1541902021199
167, -17.61, -29.19, -21.68, -23.72, -178862.94, -178716.36, -179073.20, -186084.97, 0.000, 0.000, 0.000, 21:07:01.199, 1541902021199
168, -17.59, -29.10, -21.90, -23.89, -178958.09, -178790.80, -179176.63, -186089.86, 0.000, 0.000, 0.000, 21:07:01.200, 1541902021200
169, -17.64, -29.06, -21.82, -23.92, -178965.63, -178781.92, -179183.52, -186088.33, 0.000, 0.000, 0.000, 21:07:01.200, 1541902021200
170, -17.84, -29.30, -21.79, -23.87, -178885.00, -178704.05, -179102.59, -186085.08, 0.046, 0.584, 0.764, 21:07:01.200, 1541902021200
171, -17.93, -29.26, -21.64, -24.07, -178900.09, -178718.69, -179117.64, -186085.27, 0.000, 0.000, 0.000, 21:07:01.200, 1541902021200
172, -17.86, -29.06, -21.90, -23.89, -178956.70, -178771.30, -179172.41, -186087.86, 0.000, 0.000, 0.000, 21:07:01.200, 1541902021200
173, -17.75, -29.03, -21.93, -24.05, -178985.28, -178796.00, -179199.88, -186087.78, 0.000, 0.000, 0.000, 21:07:01.200, 1541902021200
174, -17.75, -28.97, -22.15, -23.94, -178920.77, -178733.70, -179135.41, -186086.84, 0.000, 0.000, 0.000, 21:07:01.201, 1541902021201
175, -17.93, -29.21, -21.99, -23.89, -178931.72, -178757.59, -179146.41, -186088.08, 0.000, 0.000, 0.000, 21:07:01.201, 1541902021201
176, -18.06, -28.97, -21.97, -23.85, -178993.36, -178816.59, -179207.56, -186091.20, 0.000, 0.000, 0.000, 21:07:01.201, 1541902021201
177, -17.79, -28.90, -22.06, -23.72, -179020.84, -178834.64, -179233.80, -186091.05, 0.000, 0.000, 0.000, 21:07:01.201, 1541902021201
178, -17.75, -28.99, -21.82, -23.72, -178940.33, -178755.98, -179152.44, -186087.67, 0.000, 0.000, 0.000, 21:07:01.201, 1541902021201
179, -17.75, -29.12, -21.77, -23.98, -178867.39, -178693.39, -179081.25, -186084.95, 0.000, 0.000, 0.000, 21:07:01.201, 1541902021201
180, -17.61, -29.06, -21.93, -23.80, -178909.48, -178740.34, -179129.59, -186087.39, 0.000, 0.000, 0.000, 21:07:01.201, 1541902021201
181, -17.77, -28.97, -22.04, -23.80, -178975.59, -178792.78, -179195.69, -186088.92, 0.050, 0.588, 0.748, 21:07:01.201, 1541902021201
182, -17.68, -28.99, -21.90, -23.96, -178911.66, -178730.11, -179131.03, -186086.17, 0.000, 0.000, 0.000, 21:07:01.201, 1541902021201
183, -17.75, -29.08, -21.93, -23.94, -178878.03, -178696.36, -179096.41, -186085.06, 0.000, 0.000, 0.000, 21:07:01.202, 1541902021202
184, -17.81, -29.01, -21.93, -24.12, -178922.31, -178738.53, -179140.58, -186087.31, 0.000, 0.000, 0.000, 21:07:01.202, 1541902021202
185, -17.97, -29.03, -21.97, -24.21, -178977.66, -178790.08, -179195.88, -186088.89, 0.000, 0.000, 0.000, 21:07:01.202, 1541902021202
186, -17.79, -29.06, -21.82, -24.05, -178918.13, -178731.72, -179136.48, -186085.39, 0.000, 0.000, 0.000, 21:07:01.202, 1541902021202
187, -17.79, -29.01, -21.86, -23.87, -178911.05, -178724.36, -179127.88, -186086.27, 0.000, 0.000, 0.000, 21:07:01.202, 1541902021202
188, -17.64, -28.86, -21.77, -23.78, -178899.83, -178711.41, -179115.23, -186086.52, 0.000, 0.000, 0.000, 21:07:01.202, 1541902021202
189, -17.75, -28.92, -22.04, -24.03, -178964.08, -178772.64, -179178.33, -186088.92, 0.000, 0.000, 0.000, 21:07:01.202, 1541902021202
190, -17.70, -28.95, -21.95, -24.03, -178928.38, -178737.53, -179141.47, -186086.11, 0.000, 0.000, 0.000, 21:07:01.202, 1541902021202
191, -17.68, -29.01, -21.82, -24.03, -178865.77, -178690.81, -179079.22, -186084.95, 0.048, 0.590, 0.756, 21:07:01.202, 1541902021202
192, -17.79, -28.92, -21.99, -23.83, -178862.61, -178685.30, -179076.50, -186085.13, 0.000, 0.000, 0.000, 21:07:01.202, 1541902021202
224, -17.97, -29.21, -21.70, -24.16, -178950.77, -178792.41, -179195.73, -186087.86, 0.000, 0.000, 0.000, 21:07:01.430, 1541902021430
225, -17.70, -29.19, -21.93, -23.80, -178902.48, -178745.16, -179147.02, -186086.09, 0.000, 0.000, 0.000, 21:07:01.430, 1541902021430
226, -17.88, -29.03, -21.97, -23.83, -178909.03, -178749.67, -179152.80, -186086.52, 0.000, 0.000, 0.000, 21:07:01.430, 1541902021430
227, -17.95, -29.08, -21.95, -23.85, -178922.22, -178759.83, -179164.88, -186085.69, 0.000, 0.000, 0.000, 21:07:01.430, 1541902021430
228, -17.70, -29.01, -22.08, -23.74, -178889.47, -178730.02, -179132.44, -186084.44, 0.000, 0.000, 0.000, 21:07:01.430, 1541902021430
229, -17.64, -28.88, -21.99, -23.76, -178823.11, -178681.88, -179070.91, -186082.64, 0.000, 0.000, 0.000, 21:07:01.430, 1541902021430
230, -17.79, -29.15, -21.95, -23.78, -178852.27, -178719.11, -179104.44, -186085.08, 0.000, 0.000, 0.000, 21:07:01.431, 1541902021431
231, -17.97, -29.03, -21.82, -24.12, -178923.70, -178775.44, -179174.44, -186087.14, 0.056, 0.596, 0.756, 21:07:01.431, 1541902021431
232, -17.84, -29.26, -21.84, -24.27, -178865.50, -178715.02, -179115.91, -186084.39, 0.000, 0.000, 0.000, 21:07:01.431, 1541902021431
233, -17.68, -29.08, -21.79, -23.94, -178831.72, -178681.45, -179081.36, -186083.83, 0.000, 0.000, 0.000, 21:07:01.431, 1541902021431
234, -17.75, -28.92, -21.73, -23.89, -178841.47, -178689.05, -179090.31, -186084.69, 0.000, 0.000, 0.000, 21:07:01.431, 1541902021431
235, -17.66, -29.06, -21.75, -23.83, -178940.55, -178783.44, -179188.14, -186088.44, 0.000, 0.000, 0.000, 21:07:01.431, 1541902021431
236, -17.77, -29.37, -21.86, -24.01, -178925.64, -178768.98, -179173.05, -186087.59, 0.000, 0.000, 0.000, 21:07:01.431, 1541902021431
237, -17.90, -29.44, -22.04, -24.05, -178856.11, -178701.45, -179102.64, -186085.44, 0.000, 0.000, 0.000, 21:07:01.431, 1541902021431
238, -17.81, -29.08, -21.88, -24.03, -178848.33, -178692.92, -179094.53, -186084.30, 0.000, 0.000, 0.000, 21:07:01.431, 1541902021431
239, -17.64, -29.28, -21.77, -23.89, -178929.83, -178769.47, -179174.95, -186087.45, 0.000, 0.000, 0.000, 21:07:01.431, 1541902021431
240, -17.61, -29.08, -21.88, -23.67, -178945.27, -178783.58, -179189.61, -186087.47, 0.000, 0.000, 0.000, 21:07:01.431, 1541902021431
241, -17.81, -28.95, -21.97, -23.74, -178877.67, -178719.02, -179122.20, -186085.00, 0.056, 0.602, 0.758, 21:07:01.432, 1541902021432
242, -17.68, -29.17, -21.88, -23.83, -178867.84, -178707.48, -179111.41, -186085.00, 0.000, 0.000, 0.000, 21:07:01.432, 1541902021432
243, -17.79, -28.92, -21.90, -23.76, -178941.00, -178776.83, -179184.20, -186088.23, 0.000, 0.000, 0.000, 21:07:01.432, 1541902021432
244, -17.88, -29.01, -21.90, -23.92, -178931.91, -178766.56, -179173.45, -186086.47, 0.000, 0.000, 0.000, 21:07:01.432, 1541902021432
245, -17.72, -29.12, -21.73, -23.69, -178855.09, -178691.95, -179095.48, -186083.67, 0.000, 0.000, 0.000, 21:07:01.432, 1541902021432
246, -17.77, -28.92, -21.82, -24.01, -178867.97, -178704.47, -179108.95, -186084.38, 0.000, 0.000, 0.000, 21:07:01.432, 1541902021432
247, -17.64, -28.86, -21.99, -23.96, -178914.05, -178747.44, -179154.77, -186086.61, 0.000, 0.000, 0.000, 21:07:01.432, 1541902021432
248, -17.77, -28.99, -22.11, -23.63, -178948.64, -178780.00, -179188.70, -186086.73, 0.000, 0.000, 0.000, 21:07:01.432, 1541902021432
249, -17.66, -28.72, -21.88, -23.89, -178891.64, -178724.52, -179131.13, -186085.33, 0.000, 0.000, 0.000, 21:07:01.432, 1541902021432
250, -17.64, -28.79, -22.04, -23.85, -178813.75, -178656.97, -179054.77, -186082.45, 0.000, 0.000, 0.000, 21:07:01.432, 1541902021432
251, -17.88, -29.10, -21.88, -23.74, -178856.27, -178703.48, -179103.20, -186084.03, 0.000, 0.000, 0.000, 21:07:01.432, 1541902021432
252, -17.86, -28.99, -21.82, -23.83, -178888.69, -178722.69, -179135.95, -186083.91, 0.056, 0.600, 0.756, 21:07:01.433, 1541902021433
253, -17.72, -28.95, -21.79, -23.83, -178858.25, -178693.50, -179105.50, -186083.03, 0.000, 0.000, 0.000, 21:07:01.433, 1541902021433
72, -17.72, -29.37, -21.84, -23.85, -178996.56, -178812.47, -179217.88, -186089.58, 0.052, 0.594, 0.772, 21:07:03.769, 1541902023769
73, -17.64, -29.39, -21.95, -24.01, -178936.48, -178751.50, -179156.92, -186086.69, 0.000, 0.000, 0.000, 21:07:03.981, 1541902023981
74, -17.81, -29.28, -21.75, -23.74, -178857.11, -178680.55, -179075.31, -186083.83, 0.000, 0.000, 0.000, 21:07:03.981, 1541902023981
75, -17.81, -29.10, -21.59, -24.01, -178879.63, -178712.89, -179097.19, -186085.00, 0.000, 0.000, 0.000, 21:07:03.981, 1541902023981
76, -17.57, -28.97, -22.06, -24.16, -178952.00, -178771.58, -179169.95, -186087.97, 0.000, 0.000, 0.000, 21:07:03.981, 1541902023981
77, -17.48, -29.03, -21.84, -23.78, -178897.41, -178716.67, -179113.89, -186085.22, 0.000, 0.000, 0.000, 21:07:03.981, 1541902023981
78, -17.75, -29.01, -21.86, -23.87, -178873.92, -178693.11, -179090.02, -186085.17, 0.000, 0.000, 0.000, 21:07:03.981, 1541902023981
79, -17.90, -29.03, -21.79, -24.01, -178878.08, -178708.25, -179097.80, -186085.98, 0.000, 0.000, 0.000, 21:07:03.981, 1541902023981
80, -17.95, -29.01, -21.88, -23.96, -178953.22, -178781.81, -179178.81, -186088.48, 0.000, 0.000, 0.000, 21:07:03.982, 1541902023982
81, -17.88, -29.03, -21.93, -23.74, -178952.06, -178771.81, -179176.92, -186086.69, 0.000, 0.000, 0.000, 21:07:03.982, 1541902023982
82, -17.64, -29.01, -21.97, -23.89, -178845.84, -178668.47, -179070.13, -186082.83, 0.052, 0.588, 0.766, 21:07:03.982, 1541902023982
83, -17.75, -28.81, -21.77, -23.72, -178849.25, -178680.98, -179072.98, -186083.72, 0.000, 0.000, 0.000, 21:07:03.982, 1541902023982
84, -17.93, -29.08, -21.77, -23.83, -178929.06, -178763.17, -179152.52, -186087.08, 0.000, 0.000, 0.000, 21:07:03.982, 1541902023982
85, -17.93, -29.08, -21.84, -23.94, -178945.73, -178769.25, -179168.27, -186086.67, 0.000, 0.000, 0.000, 21:07:03.982, 1541902023982
86, -17.88, -28.97, -21.79, -23.74, -178850.31, -178690.23, -179076.50, -186082.94, 0.000, 0.000, 0.000, 21:07:03.982, 1541902023982
87, -17.86, -28.92, -21.73, -23.94, -178850.86, -178701.45, -179081.64, -186083.05, 0.000, 0.000, 0.000, 21:07:03.982, 1541902023982
88, -17.90, -29.06, -21.70, -23.78, -178916.72, -178758.58, -179147.30, -186086.38, 0.000, 0.000, 0.000, 21:07:03.982, 1541902023982
89, -17.70, -29.06, -21.66, -23.85, -178973.94, -178806.89, -179204.97, -186087.81, 0.000, 0.000, 0.000, 21:07:03.982, 1541902023982
90, -17.77, -28.95, -21.52, -23.85, -178891.33, -178726.73, -179122.56, -186085.39, 0.000, 0.000, 0.000, 21:07:03.982, 1541902023982
91, -17.72, -28.92, -21.77, -23.74, -178855.48, -178691.27, -179085.80, -186084.69, 0.000, 0.000, 0.000, 21:07:03.982, 1541902023982
92, -17.86, -29.01, -21.73, -23.78, -178913.77, -178747.36, -179143.61, -186087.30, 0.048, 0.588, 0.760, 21:07:03.983, 1541902023983
93, -17.99, -28.99, -21.73, -23.87, -178987.63, -178817.91, -179217.13, -186089.48, 0.000, 0.000, 0.000, 21:07:03.983, 1541902023983
94, -17.68, -29.01, -21.77, -23.78, -178901.09, -178733.44, -179129.42, -186085.42, 0.000, 0.000, 0.000, 21:07:03.983, 1541902023983
95, -17.68, -29.01, -21.84, -23.85, -178853.38, -178701.92, -179085.59, -186084.23, 0.000, 0.000, 0.000, 21:07:03.983, 1541902023983
96, -17.77, -29.08, -21.88, -23.69, -178888.42, -178730.52, -179125.52, -186085.80, 0.000, 0.000, 0.000, 21:07:03.983, 1541902023983
97, -17.81, -28.97, -22.04, -23.72, -178939.28, -178773.47, -179175.52, -186087.13, 0.000, 0.000, 0.000, 21:07:03.983, 1541902023983
98, -17.57, -29.01, -22.02, -23.94, -178914.08, -178747.61, -179149.58, -186086.52, 0.000, 0.000, 0.000, 21:07:03.983, 1541902023983
99, -17.77, -29.06, -21.99, -23.94, -178870.45, -178704.88, -179105.30, -186085.22, 0.000, 0.000, 0.000, 21:07:03.983, 1541902023983
100, -17.64, -29.15, -21.93, -23.98, -178893.19, -178725.64, -179128.08, -186086.11, 0.000, 0.000, 0.000, 21:07:03.983, 1541902023983
101, -17.70, -28.99, -22.13, -24.12, -178950.58, -178778.34, -179184.78, -186087.63, 0.000, 0.000, 0.000, 21:07:03.983, 1541902023983
102, -17.84, -28.97, -22.04, -23.85, -178925.17, -178752.19, -179158.19, -186084.95, 0.052, 0.594, 0.758, 21:07:03.984, 1541902023984
103, -17.86, -28.99, -21.88, -23.94, -178875.13, -178702.77, -179105.61, -186083.98, 0.000, 0.000, 0.000, 21:07:03.984, 1541902023984
104, -17.90, -29.26, -21.59, -23.98, -178894.33, -178719.67, -179123.20, -186086.48, 0.000, 0.000, 0.000, 21:07:03.984, 1541902023984
105, -17.86, -29.08, -21.59, -23.78, -179016.72, -178836.77, -179245.50, -186091.50, 0.000, 0.000, 0.000, 21:07:03.984, 1541902023984
106, -17.86, -28.95, -21.82, -23.89, -178993.97, -178817.77, -179222.19, -186089.47, 0.000, 0.000, 0.000, 21:07:03.984, 1541902023984
107, -17.68, -29.10, -21.73, -24.03, -178910.00, -178750.56, -179138.00, -186087.19, 0.000, 0.000, 0.000, 21:07:03.985, 1541902023985
108, -17.86, -28.97, -21.73, -24.03, -178894.02, -178723.33, -179121.33, -186087.14, 0.000, 0.000, 0.000, 21:07:03.985, 1541902023985
109, -17.72, -29.10, -21.73, -24.07, -178938.83, -178764.73, -179165.77, -186089.42, 0.000, 0.000, 0.000, 21:07:03.985, 1541902023985
110, -17.64, -29.08, -21.90, -23.98, -178996.66, -178819.34, -179223.83, -186090.58, 0.000, 0.000, 0.000, 21:07:03.985, 1541902023985
111, -17.81, -29.15, -21.73, -23.83, -178929.70, -178754.88, -179155.70, -186087.97, 0.000, 0.000, 0.000, 21:07:03.985, 1541902023985
112, -17.75, -28.70, -21.79, -23.94, -178891.59, -178716.58, -179116.23, -186086.67, 0.052, 0.590, 0.758, 21:07:03.985, 1541902023985
113, -17.59, -28.63, -21.95, -24.03, -178931.08, -178753.17, -179155.42, -186088.08, 0.000, 0.000, 0.000, 21:07:03.985, 1541902023985
114, -17.93, -28.86, -21.86, -23.85, -178977.50, -178806.73, -179204.17, -186088.92, 0.000, 0.000, 0.000, 21:07:03.985, 1541902023985
115, -17.84, -28.81, -21.95, -23.78, -178909.38, -178744.80, -179142.13, -186086.69, 0.000, 0.000, 0.000, 21:07:03.985, 1541902023985
116, -17.75, -28.92, -21.88, -23.85, -178907.47, -178735.19, -179139.97, -186088.17, 0.000, 0.000, 0.000, 21:07:03.985, 1541902023985
117, -17.64, -29.26, -21.61, -23.94, -178912.09, -178738.36, -179144.44, -186088.80, 0.000, 0.000, 0.000, 21:07:03.985, 1541902023985
118, -17.72, -29.06, -21.93, -23.96, -178965.92, -178788.27, -179197.86, -186089.69, 0.000, 0.000, 0.000, 21:07:03.986, 1541902023986
119, -17.64, -29.03, -21.99, -23.96, -178891.98, -178715.17, -179122.14, -186086.05, 0.000, 0.000, 0.000, 21:07:03.986, 1541902023986
120, -17.81, -29.03, -21.77, -23.87, -178855.44, -178679.92, -179085.20, -186085.17, 0.000, 0.000, 0.000, 21:07:03.986, 1541902023986
121, -17.79, -28.65, -21.93, -23.85, -178932.95, -178755.03, -179163.08, -186089.11, 0.000, 0.000, 0.000, 21:07:03.986, 1541902023986
122, -17.64, -28.77, -21.95, -23.72, -179019.05, -178836.09, -179248.84, -186092.59, 0.060, 0.586, 0.756, 21:07:03.986, 1541902023986
123, -17.90, -28.99, -21.79, -23.54, -178993.45, -178810.31, -179222.81, -186091.05, 0.000, 0.000, 0.000, 21:07:03.986, 1541902023986
71, -17.64, -29.33, -21.90, -23.80, -179109.95, -178813.48, -179212.34, -186091.31, 0.000, 0.000, 0.000, 21:07:04.816, 1541902024816
72, -17.68, -29.30, -21.93, -23.87, -179060.09, -178765.73, -179162.34, -186089.73, 0.000, 0.000, 0.000, 21:07:04.817, 1541902024817
73, -18.02, -29.06, -21.93, -23.83, -179012.75, -178718.34, -179114.67, -186088.19, 0.000, 0.000, 0.000, 21:07:04.817, 1541902024817
74, -17.75, -28.90, -21.99, -23.65, -179053.73, -178755.83, -179153.97, -186089.83, 0.000, 0.000, 0.000, 21:07:04.817, 1541902024817
149, -17.61, -29.21, -21.90, -23.94, -179058.67, -178779.80, -179215.09, -186091.08, 0.000, 0.000, 0.000, 21:07:05.105, 1541902025105
150, -17.77, -29.06, -22.04, -23.76, -179117.67, -178835.16, -179274.00, -186092.53, 0.044, 0.584, 0.764, 21:07:05.200, 1541902025200
151, -17.81, -29.19, -21.99, -24.07, -179036.89, -178755.55, -179192.78, -186089.70, 0.000, 0.000, 0.000, 21:07:05.200, 1541902025200
152, -18.08, -28.95, -21.79, -24.07, -178947.09, -178668.00, -179102.22, -186086.36, 0.000, 0.000, 0.000, 21:07:05.200, 1541902025200
153, -17.70, -28.86, -21.84, -23.80, -179005.89, -178724.36, -179160.47, -186088.59, 0.000, 0.000, 0.000, 21:07:05.200, 1541902025200
154, -17.84, -29.03, -21.75, -23.74, -179107.36, -178820.77, -179261.14, -186092.39, 0.000, 0.000, 0.000, 21:07:05.201, 1541902025201
155, -17.79, -28.95, -21.93, -23.65, -179031.03, -178746.14, -179184.23, -186089.47, 0.000, 0.000, 0.000, 21:07:05.201, 1541902025201
156, -17.93, -29.21, -22.15, -24.03, -179007.00, -178722.95, -179159.42, -186088.75, 0.000, 0.000, 0.000, 21:07:05.202, 1541902025202
157, -17.97, -29.21, -21.95, -23.83, -179053.14, -178766.63, -179204.48, -186090.94, 0.000, 0.000, 0.000, 21:07:05.202, 1541902025202
158, -17.86, -29.28, -21.93, -23.92, -179080.16, -178790.34, -179230.86, -186091.47, 0.000, 0.000, 0.000, 21:07:05.203, 1541902025203
159, -17.86, -29.21, -21.86, -23.98, -179089.50, -178798.66, -179239.84, -186092.22, 0.000, 0.000, 0.000, 21:07:05.203, 1541902025203
160, -17.59, -28.99, -21.93, -23.94, -179014.89, -178725.58, -179164.88, -186089.78, 0.000, 0.000, 0.000, 21:07:05.203, 1541902025203
161, -17.79, -29.06, -21.66, -23.89, -179000.63, -178710.08, -179149.98, -186088.95, 0.046, 0.588, 0.772, 21:07:05.203, 1541902025203
162, -17.90, -29.15, -21.70, -23.80, -179100.23, -178804.61, -179248.44, -186093.44, 0.000, 0.000, 0.000, 21:07:05.204, 1541902025204
163, -17.86, -29.01, -21.59, -23.67, -179099.06, -178802.34, -179246.95, -186092.22, 0.000, 0.000, 0.000, 21:07:05.204, 1541902025204
164, -17.90, -28.92, -21.48, -23.94, -179026.97, -178732.05, -179174.64, -186088.75, 0.000, 0.000, 0.000, 21:07:05.204, 1541902025204
165, -17.75, -28.95, -21.61, -24.05, -178995.33, -178700.73, -179142.50, -186086.53, 0.000, 0.000, 0.000, 21:07:05.204, 1541902025204
166, -17.68, -29.03, -21.86, -24.12, -179046.05, -178748.50, -179191.73, -186088.61, 0.000, 0.000, 0.000, 21:07:05.204, 1541902025204
167, -17.75, -29.10, -21.59, -24.18, -179067.34, -178769.00, -179211.61, -186088.91, 0.000, 0.000, 0.000, 21:07:05.204, 1541902025204
168, -17.86, -29.10, -21.50, -23.96, -178992.19, -178712.31, -179141.64, -186086.56, 0.000, 0.000, 0.000, 21:07:05.204, 1541902025204
169, -17.84, -29.03, -21.64, -23.89, -178943.19, -178657.20, -179096.97, -186084.69, 0.000, 0.000, 0.000, 21:07:05.204, 1541902025204
170, -17.64, -29.03, -21.77, -24.01, -179002.89, -178709.09, -179155.89, -186087.70, 0.000, 0.000, 0.000, 21:07:05.205, 1541902025205
171, -17.81, -28.92, -21.77, -23.83, -179039.84, -178749.31, -179193.13, -186088.23, 0.050, 0.586, 0.758, 21:07:05.205, 1541902025205
172, -17.86, -29.19, -21.99, -23.69, -178956.70, -178686.39, -179109.53, -186085.06, 0.000, 0.000, 0.000, 21:07:05.205, 1541902025205
97, -17.70, -28.92, -21.77, -23.96, -178824.03, -178675.53, -179066.86, -186083.66, 0.060, 0.586, 0.770, 21:07:06.102, 1541902026102
98, -17.77, -29.17, -21.84, -23.74, -178985.25, -178817.91, -179226.77, -186089.80, 0.000, 0.000, 0.000, 21:07:06.103, 1541902026103
99, -17.95, -29.21, -21.97, -23.80, -178942.97, -178768.38, -179183.67, -186087.28, 0.000, 0.000, 0.000, 21:07:06.104, 1541902026104
100, -17.86, -28.79, -21.95, -23.87, -178858.47, -178685.89, -179098.75, -186084.55, 0.000, 0.000, 0.000, 21:07:06.104, 1541902026104
101, -17.86, -28.68, -21.99, -24.01, -178875.08, -178701.45, -179115.25, -186086.17, 0.000, 0.000, 0.000, 21:07:06.104, 1541902026104
102, -18.06, -29.10, -22.04, -24.21, -178967.75, -178790.61, -179207.58, -186090.36, 0.000, 0.000, 0.000, 21:07:06.104, 1541902026104
103, -17.79, -29.01, -22.11, -24.05, -178990.23, -178811.88, -179229.52, -186090.41, 0.000, 0.000, 0.000, 21:07:06.104, 1541902026104
104, -17.70, -29.17, -21.95, -23.76, -178923.83, -178746.38, -179161.77, -186088.23, 0.000, 0.000, 0.000, 21:07:06.104, 1541902026104
105, -17.86, -29.17, -21.84, -23.92, -178920.72, -178742.69, -179158.34, -186088.08, 0.000, 0.000, 0.000, 21:07:06.104, 1541902026104
106, -17.81, -28.99, -21.99, -23.87, -178973.45, -178792.31, -179210.72, -186090.06, 0.000, 0.000, 0.000, 21:07:06.105, 1541902026105
107, -17.43, -28.92, -21.95, -24.05, -178997.17, -178813.08, -179233.42, -186090.30, 0.056, 0.580, 0.760, 21:07:06.105, 1541902026105
108, -17.57, -29.08, -21.99, -23.96, -178927.09, -178744.61, -179163.42, -186087.72, 0.000, 0.000, 0.000, 21:07:06.105, 1541902026105
109, -17.52, -28.97, -21.93, -23.89, -178863.48, -178689.52, -179099.38, -186085.27, 0.000, 0.000, 0.000, 21:07:06.105, 1541902026105
110, -17.59, -28.99, -21.86, -23.85, -178898.08, -178731.73, -179134.03, -186087.44, 0.000, 0.000, 0.000, 21:07:06.105, 1541902026105
111, -17.59, -29.19, -21.93, -23.89, -178997.14, -178818.78, -179232.00, -186090.69, 0.000, 0.000, 0.000, 21:07:06.105, 1541902026105
112, -17.72, -29.12, -21.82, -24.01, -178875.03, -178747.81, -179116.64, -186085.63, 0.000, 0.000, 0.000, 21:07:06.105, 1541902026105
113, -17.86, -28.97, -21.93, -23.89, -178857.11, -178733.17, -179109.11, -186085.94, 0.000, 0.000, 0.000, 21:07:06.106, 1541902026106
114, -17.70, -28.92, -21.73, -23.85, -178916.81, -178768.28, -179172.67, -186088.84, 0.000, 0.000, 0.000, 21:07:06.107, 1541902026107
115, -18.04, -28.92, -22.22, -23.98, -178958.39, -178802.45, -179212.50, -186089.53, 0.000, 0.000, 0.000, 21:07:06.107, 1541902026107
116, -17.90, -29.03, -22.15, -23.76, -178888.58, -178739.16, -179141.53, -186086.45, 0.000, 0.000, 0.000, 21:07:06.107, 1541902026107
117, -18.02, -28.86, -21.79, -23.72, -178864.91, -178729.38, -179117.64, -186086.92, 0.000, 0.000, 0.000, 21:07:06.107, 1541902026107
118, -17.81, -29.12, -21.61, -23.60, -178944.91, -178795.27, -179196.98, -186089.95, 0.048, 0.588, 0.760, 21:07:06.107, 1541902026107
119, -17.68, -29.15, -21.61, -23.80, -179000.03, -178846.11, -179251.23, -186091.47, 0.000, 0.000, 0.000, 21:07:06.107, 1541902026107
120, -17.66, -29.15, -21.61, -23.87, -178931.61, -178778.23, -179182.66, -186087.92, 0.000, 0.000, 0.000, 21:07:06.107, 1541902026107
121, -17.86, -28.97, -21.73, -23.78, -178877.70, -178726.47, -179127.80, -186086.63, 0.000, 0.000, 0.000, 21:07:06.107, 1541902026107
122, -17.64, -28.97, -21.86, -23.80, -178888.06, -178752.95, -179137.78, -186087.78, 0.000, 0.000, 0.000, 21:07:06.107, 1541902026107
123, -17.59, -28.81, -21.82, -23.74, -179002.84, -178856.63, -179251.13, -186092.42, 0.000, 0.000, 0.000, 21:07:06.108, 1541902026108
124, -17.72, -29.10, -21.52, -23.78, -178988.42, -178836.38, -179235.38, -186090.84, 0.000, 0.000, 0.000, 21:07:06.108, 1541902026108
125, -17.75, -29.03, -21.48, -23.72, -178903.00, -178752.39, -179149.83, -186087.70, 0.000, 0.000, 0.000, 21:07:06.108, 1541902026108
126, -17.75, -29.28, -21.77, -23.72, -178869.14, -178718.42, -179114.95, -186086.52, 0.000, 0.000, 0.000, 21:07:06.108, 1541902026108
127, -17.57, -28.99, -21.90, -24.01, -178964.78, -178809.34, -179209.39, -186090.27, 0.000, 0.000, 0.000, 21:07:06.108, 1541902026108
128, -17.61, -29.03, -21.88, -23.87, -178957.72, -178801.70, -179202.22, -186088.53, 0.046, 0.594, 0.762, 21:07:06.108, 1541902026108
129, -17.64, -29.08, -21.93, -23.96, -178871.70, -178718.17, -179115.45, -186085.70, 0.000, 0.000, 0.000, 21:07:06.108, 1541902026108
130, -17.75, -29.08, -21.68, -24.01, -178840.80, -178710.27, -179089.33, -186084.45, 0.000, 0.000, 0.000, 21:07:06.108, 1541902026108
131, -17.81, -28.92, -21.61, -23.94, -178932.69, -178805.81, -179194.98, -186088.75, 0.000, 0.000, 0.000, 21:07:06.108, 1541902026108
132, -18.08, -28.99, -21.90, -23.98, -178941.58, -178797.25, -179204.03, -186089.08, 0.000, 0.000, 0.000, 21:07:06.109, 1541902026109
133, -18.10, -29.10, -21.70, -24.01, -178852.78, -178721.56, -179118.52, -186085.70, 0.000, 0.000, 0.000, 21:07:06.109, 1541902026109
134, -17.79, -28.97, -21.70, -23.83, -178847.39, -178718.73, -179119.97, -186085.80, 0.000, 0.000, 0.000, 21:07:06.109, 1541902026109
135, -17.75, -28.86, -21.86, -23.74, -178901.70, -178762.39, -179173.81, -186088.53, 0.000, 0.000, 0.000, 21:07:06.109, 1541902026109
136, -17.70, -28.86, -21.99, -23.92, -178960.94, -178818.36, -179232.17, -186089.36, 0.000, 0.000, 0.000, 21:07:06.109, 1541902026109
137, -17.93, -29.03, -22.17, -23.89, -178926.58, -178795.89, -179196.97, -186088.17, 0.000, 0.000, 0.000, 21:07:06.109, 1541902026109
138, -17.75, -29.19, -21.77, -23.94, -178905.13, -178777.83, -179174.33, -186088.30, 0.050, 0.584, 0.756, 21:07:06.109, 1541902026109
139, -18.13, -29.08, -21.88, -23.85, -178917.95, -178780.88, -179186.38, -186088.75, 0.000, 0.000, 0.000, 21:07:06.109, 1541902026109
140, -17.68, -29.33, -21.90, -23.94, -179018.77, -178876.41, -179286.44, -186091.97, 0.000, 0.000, 0.000, 21:07:06.109, 1541902026109
141, -17.64, -29.41, -21.77, -23.92, -178955.75, -178814.83, -179222.78, -186089.84, 0.000, 0.000, 0.000, 21:07:06.109, 1541902026109
3, -17.90, -28.95, -21.46, -23.89, -179162.55, -178778.92, -179191.89, -186090.98, 0.000, 0.000, 0.000, 21:07:06.835, 1541902026835
4, -17.84, -29.03, -21.82, -23.78, -179195.16, -178809.61, -179224.55, -186093.02, 0.054, 0.594, 0.760, 21:07:06.836, 1541902026836
5, -17.79, -28.99, -21.86, -23.83, -179275.00, -178886.45, -179304.17, -186095.83, 0.000, 0.000, 0.000, 21:07:06.836, 1541902026836
6, -17.64, -28.97, -22.02, -23.83, -179233.25, -178845.06, -179261.14, -186094.72, 0.000, 0.000, 0.000, 21:07:06.837, 1541902026837
7, -17.57, -28.88, -21.82, -23.74, -179132.73, -178746.63, -179160.14, -186091.25, 0.000, 0.000, 0.000, 21:07:06.837, 1541902026837
8, -17.70, -28.95, -21.61, -23.60, -179168.66, -178779.77, -179194.91, -186092.39, 0.000, 0.000, 0.000, 21:07:06.838, 1541902026838
9, -17.79, -29.21, -21.70, -23.58, -179284.09, -178889.20, -179308.86, -186096.73, 0.000, 0.000, 0.000, 21:07:06.838, 1541902026838
10, -17.61, -29.08, -21.79, -23.74, -179257.34, -178862.16, -179281.84, -186094.94, 0.000, 0.000, 0.000, 21:07:06.839, 1541902026839
11, -17.79, -28.97, -21.95, -23.67, -179151.34, -178759.30, -179176.20, -186091.31, 0.000, 0.000, 0.000, 21:07:06.840, 1541902026840
12, -17.68, -28.90, -21.75, -23.92, -179114.02, -178721.39, -179137.63, -186089.42, 0.000, 0.000, 0.000, 21:07:06.841, 1541902026841
13, -17.79, -29.10, -21.57, -23.83, -179196.70, -178799.20, -179218.61, -186093.05, 0.000, 0.000, 0.000, 21:07:06.842, 1541902026842
14, -17.81, -29.10, -21.61, -23.74, -179186.94, -178788.84, -179208.34, -186091.94, 0.054, 0.588, 0.758, 21:07:06.842, 1541902026842
15, -17.88, -29.08, -21.90, -23.94, -179104.56, -178708.92, -179125.13, -186089.38, 0.000, 0.000, 0.000, 21:07:06.843, 1541902026843
16, -17.72, -29.03, -21.73, -24.01, -179110.53, -178718.95, -179131.41, -186089.59, 0.000, 0.000, 0.000, 21:07:06.851, 1541902026851
17, -17.81, -29.08, -21.46, -23.92, -179147.02, -178764.48, -179175.41, -186090.94, 0.000, 0.000, 0.000, 21:07:06.851, 1541902026851
18, -17.86, -29.19, -21.64, -23.89, -179216.30, -178821.17, -179246.39, -186092.86, 0.000, 0.000, 0.000, 21:07:06.852, 1541902026852
19, -17.90, -29.03, -21.79, -24.07, -179157.42, -178763.92, -179187.42, -186090.98, 0.000, 0.000, 0.000, 21:07:06.852, 1541902026852
20, -17.77, -28.97, -21.84, -24.05, -179119.08, -178738.36, -179148.48, -186089.38, 0.000, 0.000, 0.000, 21:07:06.853, 1541902026853
21, -17.93, -29.03, -21.73, -23.92, -179172.92, -178789.14, -179200.91, -186092.45, 0.000, 0.000, 0.000, 21:07:06.853, 1541902026853
22, -17.95, -28.88, -21.88, -23.96, -179231.97, -178838.17, -179259.78, -186094.06, 0.000, 0.000, 0.000, 21:07:06.853, 1541902026853
23, -17.59, -28.92, -22.02, -24.01, -179149.73, -178757.41, -179176.52, -186090.98, 0.000, 0.000, 0.000, 21:07:06.855, 1541902026855
24, -17.86, -28.88, -21.90, -23.96, -179074.92, -178684.36, -179101.59, -186088.41, 0.054, 0.590, 0.756, 21:07:06.856, 1541902026856
25, -17.64, -28.97, -21.70, -23.78, -179130.25, -178736.75, -179156.83, -186090.72, 0.000, 0.000, 0.000, 21:07:06.856, 1541902026856
26, -17.86, -29.03, -21.70, -23.78, -179229.52, -178830.73, -179255.11, -186093.55, 0.000, 0.000, 0.000, 21:07:06.859, 1541902026859
27, -17.95, -29.15, -21.82, -24.03, -179120.73, -178724.47, -179145.34, -186089.08, 0.000, 0.000, 0.000, 21:07:06.859, 1541902026859
28, -18.06, -29.15, -21.73, -23.98, -179085.44, -178696.72, -179109.50, -186087.47, 0.000, 0.000, 0.000, 21:07:06.860, 1541902026860
29, -17.72, -28.90, -21.77, -23.83, -179088.00, -178723.77, -179115.34, -186087.78, 0.000, 0.000, 0.000, 21:07:06.860, 1541902026860
30, -17.79, -28.97, -21.70, -23.67, -179174.42, -178793.50, -179207.09, -186091.59, 0.000, 0.000, 0.000, 21:07:06.860, 1541902026860
31, -17.72, -29.01, -21.52, -23.89, -179154.34, -178768.31, -179187.42, -186090.53, 0.000, 0.000, 0.000, 21:07:06.860, 1541902026860
32, -17.88, -28.97, -21.86, -23.96, -179095.31, -178710.59, -179127.39, -186088.53, 0.000, 0.000, 0.000, 21:07:06.860, 1541902026860
33, -17.90, -28.90, -21.77, -23.85, -179111.50, -178725.28, -179142.83, -186089.69, 0.000, 0.000, 0.000, 21:07:06.861, 1541902026861
34, -17.72, -29.21, -21.68, -23.78, -179168.27, -178779.19, -179199.88, -186091.61, 0.046, 0.590, 0.756, 21:07:06.861, 1541902026861
35, -17.70, -29.28, -21.95, -24.01, -179135.23, -178750.34, -179166.69, -186089.58, 0.000, 0.000, 0.000, 21:07:06.861, 1541902026861
36, -17.86, -29.17, -22.17, -24.16, -179055.39, -178703.78, -179092.78, -186086.89, 0.000, 0.000, 0.000, 21:07:06.861, 1541902026861
37, -17.81, -29.17, -21.90, -23.78, -179074.81, -178705.25, -179116.02, -186088.17, 0.000, 0.000, 0.000, 21:07:06.862, 1541902026862
38, -17.70, -29.17, -21.93, -23.63, -179167.42, -178788.47, -179207.72, -186092.06, 0.000, 0.000, 0.000, 21:07:06.862, 1541902026862
39, -17.57, -29.26, -21.82, -23.85, -179193.19, -178812.25, -179232.95, -186092.23, 0.000, 0.000, 0.000, 21:07:06.862, 1541902026862
40, -17.61, -29.30, -21.59, -23.92, -179089.45, -178710.91, -179127.72, -186088.59, 0.000, 0.000, 0.000, 21:07:06.862, 1541902026862
41, -17.75, -29.15, -21.86, -23.94, -179099.53, -178720.16, -179136.94, -186089.48, 0.000, 0.000, 0.000, 21:07:06.862, 1541902026862
42, -17.70, -29.19, -21.88, -23.83, -179211.39, -178827.67, -179248.11, -186094.05, 0.000, 0.000, 0.000, 21:07:06.862, 1541902026862
43, -18.13, -29.21, -22.02, -23.80, -179220.19, -178834.83, -179256.94, -186093.39, 0.000, 0.000, 0.000, 21:07:06.862, 1541902026862
44, -17.95, -28.97, -21.99, -23.85, -179110.11, -178727.16, -179145.20, -186089.31, 0.046, 0.592, 0.762, 21:07:06.863, 1541902026863
45, -17.86, -29.03, -21.77, -23.76, -179079.00, -178695.38, -179112.72, -186088.30, 0.000, 0.000, 0.000, 21:07:06.863, 1541902026863
46, -17.75, -29.08, -21.79, -23.72, -179153.63, -178765.95, -179186.13, -186091.14, 0.000, 0.000, 0.000, 21:07:06.863, 1541902026863
47, -17.70, -29.21, -21.84, -23.78, -179208.91, -178816.78, -179239.92, -186092.64, 0.000, 0.000, 0.000, 21:07:06.863, 1541902026863
48, -17.79, -29.15, -21.82, -23.96, -179113.78, -178723.84, -179144.58, -186088.64, 0.000, 0.000, 0.000, 21:07:06.863, 1541902026863
49, -17.81, -28.97, -21.70, -23.89, -179089.97, -178700.67, -179120.89, -186087.66, 0.000, 0.000, 0.000, 21:07:06.863, 1541902026863
50, -17.93, -29.08, -22.06, -24.03, -179148.58, -178755.92, -179178.66, -186091.03, 0.000, 0.000, 0.000, 21:07:06.863, 1541902026863
51, -17.70, -29.03, -21.97, -24.05, -179244.33, -178847.48, -179273.56, -186094.14, 0.000, 0.000, 0.000, 21:07:06.864, 1541902026864
52, -17.77, -29.10, -21.82, -24.12, -179166.95, -178779.81, -179197.48, -186090.81, 0.000, 0.000, 0.000, 21:07:06.864, 1541902026864
53, -17.79, -28.97, -22.08, -23.83, -179102.08, -178726.47, -179139.64, -186088.55, 0.000, 0.000, 0.000, 21:07:06.864, 1541902026864
54, -17.52, -29.01, -21.93, -23.60, -179118.78, -178731.38, -179157.47, -186089.95, 0.046, 0.592, 0.762, 21:07:06.864, 1541902026864
55, -17.81, -28.97, -21.93, -23.94, -179201.84, -178809.69, -179240.22, -186093.06, 0.000, 0.000, 0.000, 21:07:06.864, 1541902026864
56, -17.70, -29.08, -21.79, -23.76, -179165.91, -178773.73, -179202.92, -186091.00, 0.000, 0.000, 0.000, 21:07:06.865, 1541902026865
57, -17.79, -28.97, -21.79, -23.60, -179119.09, -178737.03, -179155.55, -186089.70, 0.000, 0.000, 0.000, 21:07:06.865, 1541902026865
58, -17.68, -29.08, -21.95, -23.67, -179150.75, -178773.17, -179186.03, -186091.34, 0.000, 0.000, 0.000, 21:07:06.865, 1541902026865
59, -17.68, -29.12, -22.08, -23.78, -179193.97, -178803.53, -179228.66, -186092.91, 0.000, 0.000, 0.000, 21:07:06.865, 1541902026865
60, -18.02, -29.15, -21.86, -23.96, -179140.59, -178750.92, -179174.80, -186090.09, 0.000, 0.000, 0.000, 21:07:06.865, 1541902026865
61, -17.61, -29.41, -21.68, -23.96, -179080.34, -178706.27, -179114.17, -186088.48, 0.000, 0.000, 0.000, 21:07:06.865, 1541902026865
62, -17.72, -29.21, -21.66, -24.05, -179111.20, -178736.41, -179144.70, -186090.31, 0.000, 0.000, 0.000, 21:07:06.866, 1541902026866
63, -17.86, -29.08, -21.66, -24.14, -179177.19, -178792.31, -179209.38, -186092.33, 0.000, 0.000, 0.000, 21:07:06.866, 1541902026866
64, -17.86, -29.03, -21.86, -23.89, -179165.97, -178778.91, -179197.38, -186090.36, 0.050, 0.590, 0.752, 21:07:06.866, 1541902026866
65, -17.68, -28.81, -21.93, -23.96, -179070.23, -178685.56, -179101.64, -186087.00, 0.000, 0.000, 0.000, 21:07:06.866, 1541902026866
66, -17.99, -29.01, -22.04, -23.85, -179068.25, -178683.06, -179099.67, -186086.92, 0.000, 0.000, 0.000, 21:07:06.866, 1541902026866
67, -17.79, -29.21, -21.95, -23.76, -179137.17, -178748.14, -179167.55, -186090.14, 0.000, 0.000, 0.000, 21:07:06.866, 1541902026866
68, -17.81, -29.08, -21.70, -24.01, -179186.27, -178794.09, -179215.50, -186092.17, 0.000, 0.000, 0.000, 21:07:06.866, 1541902026866
164, -17.86, -28.99, -21.90, -23.96, -179107.55, -178785.05, -179189.39, -186087.86, 0.000, 0.000, 0.000, 21:07:07.501, 1541902027501
165, -18.02, -29.19, -21.77, -23.78, -179062.66, -178740.91, -179143.73, -186088.39, 0.000, 0.000, 0.000, 21:07:07.501, 1541902027501
166, -17.95, -29.10, -21.55, -23.83, -179067.64, -178746.02, -179148.27, -186088.97, 0.042, 0.592, 0.764, 21:07:07.502, 1541902027502
167, -17.90, -29.15, -21.79, -23.92, -179111.66, -178787.27, -179191.66, -186091.31, 0.000, 0.000, 0.000, 21:07:07.502, 1541902027502
168, -17.88, -29.24, -21.82, -23.83, -179135.95, -178807.80, -179214.66, -186091.08, 0.000, 0.000, 0.000, 21:07:07.502, 1541902027502
169, -17.70, -29.19, -21.75, -23.89, -179064.95, -178737.89, -179143.41, -186088.75, 0.000, 0.000, 0.000, 21:07:07.502, 1541902027502
170, -17.64, -29.06, -21.90, -23.65, -179037.38, -178710.11, -179114.95, -186087.63, 0.000, 0.000, 0.000, 21:07:07.502, 1541902027502
171, -17.72, -28.99, -21.93, -23.87, -179106.94, -178776.11, -179183.69, -186090.41, 0.000, 0.000, 0.000, 21:07:07.502, 1541902027502
172, -17.90, -29.03, -21.73, -23.92, -179153.83, -178819.92, -179230.86, -186091.67, 0.000, 0.000, 0.000, 21:07:07.503, 1541902027503
173, -17.57, -29.19, -21.77, -23.80, -179099.02, -178767.09, -179176.31, -186089.58, 0.000, 0.000, 0.000, 21:07:07.503, 1541902027503
174, -17.59, -29.06, -21.84, -23.74, -179046.50, -178715.98, -179123.66, -186087.98, 0.000, 0.000, 0.000, 21:07:07.503, 1541902027503
175, -17.64, -28.83, -21.79, -23.72, -179064.53, -178731.69, -179140.67, -186088.77, 0.000, 0.000, 0.000, 21:07:07.503, 1541902027503
176, -17.70, -29.10, -22.02, -23.85, -179156.84, -178819.52, -179231.84, -186091.61, 0.040, 0.592, 0.762, 21:07:07.503, 1541902027503
177, -17.86, -29.08, -21.93, -24.07, -179073.44, -178744.70, -179147.48, -186087.70, 0.000, 0.000, 0.000, 21:07:07.504, 1541902027504
178, -17.81, -29.10, -21.95, -23.80, -179001.53, -178691.33, -179076.34, -186085.64, 0.000, 0.000, 0.000, 21:07:07.504, 1541902027504
179, -17.90, -29.17, -22.06, -23.60, -179044.08, -178732.14, -179125.91, -186087.70, 0.000, 0.000, 0.000, 21:07:07.504, 1541902027504
180, -17.88, -29.08, -21.70, -23.94, -179124.77, -178797.28, -179208.25, -186090.67, 0.000, 0.000, 0.000, 21:07:07.504, 1541902027504
181, -17.46, -28.83, -21.70, -24.07, -179068.02, -178741.84, -179151.06, -186088.02, 0.000, 0.000, 0.000, 21:07:07.504, 1541902027504
182, -17.55, -29.08, -21.97, -23.87, -178982.30, -178673.61, -179076.81, -186084.95, 0.000, 0.000, 0.000, 21:07:07.504, 1541902027504
183, -17.68, -29.03, -22.04, -23.69, -179051.95, -178734.11, -179154.80, -186088.38, 0.000, 0.000, 0.000, 21:07:07.504, 1541902027504
184, -17.59, -29.01, -21.82, -23.45, -179115.39, -178791.19, -179216.92, -186090.72, 0.000, 0.000, 0.000, 21:07:07.504, 1541902027504
185, -17.75, -28.88, -21.66, -23.94, -179129.58, -178802.80, -179230.61, -186090.41, 0.000, 0.000, 0.000, 21:07:07.504, 1541902027504
186, -17.68, -28.99, -21.59, -23.98, -179043.70, -178718.73, -179144.38, -186088.02, 0.044, 0.588, 0.760, 21:07:07.504, 1541902027504
187, -17.57, -29.03, -21.95, -23.80, -179005.61, -178682.09, -179106.95, -186086.84, 0.000, 0.000, 0.000, 21:07:07.505, 1541902027505
188, -17.72, -29.24, -21.90, -23.98, -179084.67, -178758.72, -179186.64, -186090.11, 0.000, 0.000, 0.000, 21:07:07.505, 1541902027505
189, -17.70, -29.39, -21.73, -23.83, -179131.83, -178801.92, -179232.28, -186091.14, 0.000, 0.000, 0.000, 21:07:07.505, 1541902027505
190, -17.84, -29.19, -22.06, -23.92, -179036.03, -178718.55, -179133.47, -186087.67, 0.000, 0.000, 0.000, 21:07:07.505, 1541902027505
191, -17.84, -29.15, -21.99, -24.12, -179008.77, -178697.92, -179106.17, -186086.73, 0.000, 0.000, 0.000, 21:07:07.505, 1541902027505
192, -17.88, -28.97, -21.66, -24.07, -179084.05, -178761.78, -179180.09, -186090.61, 0.000, 0.000, 0.000, 21:07:07.505, 1541902027505
193, -17.86, -28.92, -21.93, -23.98, -179093.50, -178769.78, -179190.73, -186090.16, 0.000, 0.000, 0.000, 21:07:07.505, 1541902027505
194, -17.81, -28.95, -21.99, -23.85, -179035.48, -178712.34, -179132.17, -186088.03, 0.000, 0.000, 0.000, 21:07:07.505, 1541902027505
195, -17.86, -29.08, -21.88, -23.76, -179010.08, -178686.14, -179105.34, -186087.14, 0.000, 0.000, 0.000, 21:07:07.505, 1541902027505
196, -17.95, -29.03, -22.02, -23.94, -179028.02, -178701.91, -179121.86, -186088.19, 0.046, 0.590, 0.752, 21:07:07.505, 1541902027505
197, -17.88, -28.99, -21.95, -23.85, -179073.39, -178745.03, -179167.83, -186089.33, 0.000, 0.000, 0.000, 21:07:07.505, 1541902027505
198, -17.77, -28.99, -21.68, -23.89, -179025.94, -178698.72, -179119.61, -186087.41, 0.000, 0.000, 0.000, 21:07:07.505, 1541902027505
199, -17.88, -29.01, -21.93, -23.92, -179018.95, -178693.61, -179111.77, -186087.75, 0.000, 0.000, 0.000, 21:07:07.506, 1541902027506
200, -17.77, -28.99, -21.84, -23.65, -179036.42, -178723.30, -179127.59, -186088.39, 0.000, 0.000, 0.000, 21:07:07.506, 1541902027506
201, -17.79, -28.95, -21.97, -23.80, -179116.41, -178789.94, -179207.20, -186091.28, 0.000, 0.000, 0.000, 21:07:07.506, 1541902027506
202, -17.93, -28.90, -21.99, -23.65, -179071.52, -178743.59, -179161.88, -186088.55, 0.000, 0.000, 0.000, 21:07:07.506, 1541902027506
203, -17.79, -28.92, -22.13, -23.76, -179020.97, -178694.13, -179110.02, -186085.80, 0.000, 0.000, 0.000, 21:07:07.506, 1541902027506
204, -17.75, -28.90, -22.04, -23.96, -179039.66, -178711.44, -179128.02, -186087.30, 0.000, 0.000, 0.000, 21:07:07.506, 1541902027506
205, -17.79, -29.10, -21.84, -23.89, -179141.22, -178808.45, -179229.80, -186091.94, 0.000, 0.000, 0.000, 21:07:07.506, 1541902027506
206, -17.88, -29.26, -21.86, -23.92, -179096.61, -178769.78, -179185.69, -186089.55, 0.046, 0.586, 0.752, 21:07:07.507, 1541902027507
207, -17.86, -29.24, -21.75, -24.03, -178968.42, -178675.38, -179064.09, -186084.91, 0.000, 0.000, 0.000, 21:07:07.507, 1541902027507
208, -17.97, -28.99, -21.77, -24.16, -179010.53, -178699.58, -179108.02, -186086.83, 0.000, 0.000, 0.000, 21:07:07.507, 1541902027507
209, -17.81, -29.10, -21.93, -24.12, -179093.64, -178774.16, -179190.94, -186090.88, 0.000, 0.000, 0.000, 21:07:07.507, 1541902027507
210, -17.57, -29.17, -21.86, -24.12, -179097.81, -178790.95, -179193.97, -186089.94, 0.000, 0.000, 0.000, 21:07:07.507, 1541902027507
211, -17.57, -29.19, -21.77, -23.76, -179030.22, -178722.36, -179124.58, -186087.98, 0.000, 0.000, 0.000, 21:07:07.507, 1541902027507
212, -17.84, -29.15, -21.70, -23.67, -179030.41, -178715.92, -179123.91, -186088.13, 0.000, 0.000, 0.000, 21:07:07.507, 1541902027507
213, -17.97, -29.03, -21.82, -23.85, -179074.30, -178757.00, -179166.53, -186090.14, 0.000, 0.000, 0.000, 21:07:07.508, 1541902027508
214, -18.02, -29.19, -22.06, -23.67, -179137.80, -178817.02, -179229.63, -186091.61, 0.000, 0.000, 0.000, 21:07:07.508, 1541902027508
215, -17.93, -29.10, -22.11, -23.87, -179034.63, -178716.19, -179126.06, -186087.31, 0.000, 0.000, 0.000, 21:07:07.508, 1541902027508
216, -17.57, -28.99, -21.88, -23.85, -178990.73, -178673.25, -179081.64, -186085.89, 0.000, 0.000, 0.000, 21:07:07.508, 1541902027508
217, -17.77, -28.86, -21.93, -23.78, -179079.27, -178757.67, -179169.31, -186089.98, 0.048, 0.582, 0.752, 21:07:07.508, 1541902027508
218, -17.66, -28.90, -21.93, -23.80, -179173.23, -178846.03, -179263.42, -186092.84, 0.000, 0.000, 0.000, 21:07:07.508, 1541902027508
219, -17.88, -29.01, -21.79, -23.76, -179063.34, -178750.98, -179153.55, -186088.41, 0.000, 0.000, 0.000, 21:07:07.508, 1541902027508
220, -18.06, -29.12, -22.04, -23.92, -179021.53, -178718.19, -179111.36, -186087.20, 0.000, 0.000, 0.000, 21:07:07.508, 1541902027508
221, -18.04, -29.08, -22.26, -23.83, -179063.97, -178765.00, -179160.41, -186089.47, 0.000, 0.000, 0.000, 21:07:07.508, 1541902027508
222, -17.64, -29.03, -22.06, -23.98, -179135.53, -178822.23, -179233.25, -186091.66, 0.000, 0.000, 0.000, 21:07:07.508, 1541902027508
223, -17.70, -29.12, -21.97, -24.16, -179066.61, -178754.34, -179163.64, -186088.77, 0.000, 0.000, 0.000, 21:07:07.508, 1541902027508
224, -17.64, -29.08, -21.95, -23.96, -178975.53, -178697.31, -179078.39, -186085.08, 0.000, 0.000, 0.000, 21:07:07.508, 1541902027508
225, -17.70, -29.30, -22.04, -23.58, -178978.95, -178708.94, -179094.16, -186086.11, 0.000, 0.000, 0.000, 21:07:07.508, 1541902027508
226, -17.93, -29.17, -21.99, -23.83, -179105.73, -178812.72, -179224.53, -186090.98, 0.000, 0.000, 0.000, 21:07:07.509, 1541902027509
227, -17.86, -29.06, -21.86, -23.85, -179069.94, -178773.73, -179188.20, -186088.92, 0.050, 0.592, 0.756, 21:07:07.509, 1541902027509
228, -17.64, -29.10, -21.75, -23.80, -179009.33, -178715.20, -179126.67, -186088.14, 0.000, 0.000, 0.000, 21:07:07.509, 1541902027509
229, -17.79, -29.06, -21.66, -23.80, -179040.19, -178744.97, -179156.17, -186090.06, 0.000, 0.000, 0.000, 21:07:07.509, 1541902027509
230, -17.72, -28.97, -21.93, -23.78, -179115.67, -178815.38, -179230.16, -186093.00, 0.000, 0.000, 0.000, 21:07:07.509, 1541902027509
231, -17.72, -29.26, -21.79, -23.83, -179103.34, -178801.61, -179216.77, -186092.02, 0.000, 0.000, 0.000, 21:07:07.509, 1541902027509
232, -17.86, -29.53, -21.70, -23.87, -179041.77, -178741.11, -179153.61, -186089.83, 0.000, 0.000, 0.000, 21:07:07.509, 1541902027509
233, -17.90, -29.21, -21.88, -24.01, -179037.63, -178736.66, -179148.72, -186089.11, 0.000, 0.000, 0.000, 21:07:07.509, 1541902027509
234, -17.75, -28.92, -21.79, -23.92, -179103.72, -178798.27, -179214.41, -186091.70, 0.000, 0.000, 0.000, 21:07:07.509, 1541902027509
235, -17.70, -28.92, -21.70, -24.10, -179080.98, -178775.11, -179192.16, -186089.95, 0.000, 0.000, 0.000, 21:07:07.509, 1541902027509
236, -17.77, -28.90, -21.90, -24.07, -178983.31, -178684.22, -179094.44, -186087.00, 0.000, 0.000, 0.000, 21:07:07.509, 1541902027509
163, -17.75, -29.19, -21.48, -24.05, -179020.97, -178761.47, -179187.47, -186089.38, 0.048, 0.592, 0.760, 21:07:08.237, 1541902028237
252, -17.86, -29.08, -21.99, -23.56, -178907.67, -178697.61, -179065.67, -186084.17, 0.000, 0.000, 0.000, 21:07:08.942, 1541902028942
253, -17.93, -29.06, -22.02, -23.94, -178986.28, -178770.34, -179152.58, -186088.28, 0.000, 0.000, 0.000, 21:07:08.943, 1541902028943
254, -17.86, -29.15, -22.31, -23.78, -179062.03, -178829.19, -179230.23, -186091.31, 0.000, 0.000, 0.000, 21:07:08.943, 1541902028943
255, -17.64, -29.03, -21.84, -23.94, -178995.05, -178777.36, -179163.03, -186088.91, 0.052, 0.590, 0.764, 21:07:08.943, 1541902028943
0, -17.68, -29.10, -21.84, -24.07, -178992.73, -178770.19, -179159.75, -186089.44, 0.000, 0.000, 0.000, 21:07:08.943, 1541902028943
1, -17.75, -29.26, -21.88, -23.65, -179030.72, -178801.39, -179197.58, -186090.77, 0.000, 0.000, 0.000, 21:07:08.943, 1541902028943
2, -17.77, -29.10, -21.82, -23.83, -179076.83, -178843.98, -179243.34, -186091.59, 0.000, 0.000, 0.000, 21:07:08.943, 1541902028943
3, -17.66, -28.74, -22.06, -24.01, -178965.34, -178753.28, -179133.22, -186087.56, 0.000, 0.000, 0.000, 21:07:08.943, 1541902028943
4, -17.75, -29.01, -21.95, -24.12, -178871.14, -178675.81, -179046.19, -186084.09, 0.000, 0.000, 0.000, 21:07:08.943, 1541902028943
5, -17.57, -29.10, -21.84, -24.18, -178903.94, -178688.16, -179078.33, -186085.67, 0.000, 0.000, 0.000, 21:07:08.943, 1541902028943
6, -17.77, -29.37, -21.90, -24.01, -178998.55, -178778.09, -179172.56, -186089.27, 0.000, 0.000, 0.000, 21:07:08.943, 1541902028943
7, -17.75, -29.28, -21.93, -23.72, -178996.31, -178775.89, -179169.83, -186088.80, 0.000, 0.000, 0.000, 21:07:08.944, 1541902028944
8, -17.61, -29.08, -21.84, -23.83, -178952.98, -178733.22, -179126.06, -186087.19, 0.000, 0.000, 0.000, 21:07:08.944, 1541902028944
9, -17.59, -28.88, -21.97, -23.80, -178926.38, -178706.08, -179099.73, -186085.63, 0.046, 0.588, 0.762, 21:07:08.944, 1541902028944
10, -17.66, -28.88, -21.93, -23.80, -178983.80, -178759.17, -179155.39, -186087.67, 0.000, 0.000, 0.000, 21:07:08.944, 1541902028944
11, -17.70, -29.03, -21.57, -23.92, -178955.66, -178730.17, -179126.94, -186085.52, 0.000, 0.000, 0.000, 21:07:08.944, 1541902028944
12, -17.70, -29.03, -21.68, -23.83, -178881.09, -178657.86, -179052.05, -186083.70, 0.000, 0.000, 0.000, 21:07:08.944, 1541902028944
13, -17.61, -28.86, -21.70, -23.83, -178936.69, -178711.27, -179106.94, -186086.06, 0.000, 0.000, 0.000, 21:07:08.944, 1541902028944
14, -17.70, -28.97, -21.84, -23.92, -179005.42, -178776.53, -179174.39, -186089.28, 0.000, 0.000, 0.000, 21:07:08.944, 1541902028944
15, -17.79, -29.30, -21.73, -24.14, -179002.53, -178771.70, -179170.08, -186088.06, 0.000, 0.000, 0.000, 21:07:08.944, 1541902028944
16, -17.70, -29.44, -21.84, -23.92, -178945.83, -178717.20, -179113.23, -186086.61, 0.000, 0.000, 0.000, 21:07:08.944, 1541902028944
17, -17.84, -29.26, -21.97, -23.76, -178912.72, -178685.19, -179080.30, -186085.44, 0.000, 0.000, 0.000, 21:07:08.944, 1541902028944
18, -17.81, -29.10, -21.95, -23.94, -178983.67, -178751.63, -179150.39, -186089.13, 0.000, 0.000, 0.000, 21:07:08.944, 1541902028944
19, -17.52, -29.12, -22.11, -24.05, -178989.48, -178754.14, -179153.97, -186088.06, 0.048, 0.592, 0.762, 21:07:08.944, 1541902028944
20, -17.68, -29.19, -21.82, -23.98, -178913.91, -178681.19, -179078.30, -186085.08, 0.000, 0.000, 0.000, 21:07:08.944, 1541902028944
21, -17.81, -29.01, -21.97, -23.87, -178889.30, -178682.86, -179057.38, -186084.53, 0.000, 0.000, 0.000, 21:07:08.944, 1541902028944
22, -17.68, -28.86, -21.95, -23.96, -178923.31, -178737.89, -179106.89, -186086.56, 0.000, 0.000, 0.000, 21:07:08.944, 1541902028944
23, -17.61, -29.08, -21.82, -23.94, -179060.47, -178842.41, -179245.83, -186091.92, 0.000, 0.000, 0.000, 21:07:08.944, 1541902028944
24, -17.88, -29.17, -21.95, -23.87, -178972.33, -178765.06, -179156.59, -186088.48, 0.000, 0.000, 0.000, 21:07:08.944, 1541902028944
25, -17.81, -29.19, -22.04, -24.07, -178924.17, -178724.92, -179108.34, -186087.19, 0.000, 0.000, 0.000, 21:07:08.944, 1541902028944
26, -17.70, -29.21, -22.02, -24.05, -178989.66, -178778.14, -179173.56, -186090.27, 0.000, 0.000, 0.000, 21:07:08.945, 1541902028945
27, -17.88, -29.30, -21.90, -23.89, -179082.53, -178866.50, -179266.19, -186093.53, 0.000, 0.000, 0.000, 21:07:08.945, 1541902028945
28, -17.77, -29.10, -21.86, -23.85, -179003.06, -178800.09, -179188.56, -186089.69, 0.000, 0.000, 0.000, 21:07:08.945, 1541902028945
29, -17.66, -28.97, -21.99, -23.92, -178912.34, -178713.25, -179102.08, -186086.67, 0.054, 0.586, 0.762, 21:07:08.945, 1541902028945
30, -17.46, -28.99, -21.88, -23.94, -178970.95, -178762.08, -179161.23, -186089.48, 0.000, 0.000, 0.000, 21:07:08.945, 1541902028945
31, -17.46, -28.88, -21.73, -23.85, -179040.34, -178827.89, -179230.27, -186091.83, 0.000, 0.000, 0.000, 21:07:08.945, 1541902028945
32, -17.86, -29.03, -21.84, -23.87, -178992.06, -178784.53, -179182.50, -186088.53, 0.000, 0.000, 0.000, 21:07:08.945, 1541902028945
33, -17.81, -29.19, -22.02, -23.85, -178915.22, -178722.80, -179111.98, -186085.80, 0.000, 0.000, 0.000, 21:07:08.945, 1541902028945
34, -17.86, -29.01, -21.97, -23.74, -178934.00, -178729.14, -179131.77, -186087.13, 0.000, 0.000, 0.000, 21:07:08.945, 1541902028945
35, -17.97, -29.15, -21.77, -23.85, -179007.27, -178796.88, -179204.56, -186089.83, 0.000, 0.000, 0.000, 21:07:08.945, 1541902028945
36, -17.70, -29.15, -21.77, -23.72, -178996.30, -178786.03, -179193.61, -186089.16, 0.000, 0.000, 0.000, 21:07:08.946, 1541902028946
37, -17.97, -29.01, -21.61, -23.65, -178927.42, -178719.31, -179124.11, -186087.08, 0.000, 0.000, 0.000, 21:07:08.946, 1541902028946
38, -17.90, -29.01, -21.93, -23.85, -178933.73, -178723.97, -179129.64, -186086.80, 0.000, 0.000, 0.000, 21:07:08.946, 1541902028946
39, -17.75, -28.86, -21.77, -23.96, -178989.39, -178776.22, -179184.58, -186090.11, 0.048, 0.586, 0.760, 21:07:08.946, 1541902028946
40, -17.97, -29.01, -21.84, -23.98, -179000.30, -178788.48, -179194.98, -186089.47, 0.000, 0.000, 0.000, 21:07:08.946, 1541902028946
41, -17.97, -29.19, -21.99, -24.05, -178887.13, -178692.36, -179088.83, -186084.48, 0.000, 0.000, 0.000, 21:07:08.946, 1541902028946
42, -17.88, -29.17, -21.93, -23.98, -178892.16, -178686.61, -179095.48, -186084.77, 0.000, 0.000, 0.000, 21:07:08.946, 1541902028946
43, -17.86, -28.99, -21.66, -23.92, -178934.45, -178724.83, -179136.69, -186086.89, 0.000, 0.000, 0.000, 21:07:08.946, 1541902028946
44, -17.84, -29.21, -21.86, -23.89, -179005.14, -178792.42, -179207.50, -186089.06, 0.000, 0.000, 0.000, 21:07:08.946, 1541902028946
45, -17.86, -29.21, -21.66, -24.01, -178917.75, -178709.61, -179119.59, -186085.73, 0.000, 0.000, 0.000, 21:07:08.947, 1541902028947
46, -17.72, -29.30, -21.75, -24.01, -178890.22, -178697.08, -179097.19, -186084.59, 0.000, 0.000, 0.000, 21:07:08.947, 1541902028947
47, -17.75, -29.19, -22.02, -23.96, -178945.06, -178740.50, -179155.19, -186087.00, 0.000, 0.000, 0.000, 21:07:08.947, 1541902028947
48, -17.88, -29.30, -21.73, -23.98, -179012.61, -178802.38, -179222.03, -186088.92, 0.000, 0.000, 0.000, 21:07:08.947, 1541902028947
49, -17.79, -29.39, -21.77, -23.92, -178927.88, -178722.39, -179137.06, -186086.20, 0.048, 0.586, 0.758, 21:07:08.947, 1541902028947
50, -17.84, -29.08, -21.70, -23.98, -178827.94, -178638.88, -179043.66, -186083.20, 0.000, 0.000, 0.000, 21:07:08.947, 1541902028947
51, -18.06, -28.97, -21.59, -23.89, -178915.03, -178713.13, -179133.72, -186087.08, 0.000, 0.000, 0.000, 21:07:08.947, 1541902028947
52, -17.84, -29.15, -21.70, -23.60, -179022.64, -178814.59, -179241.63, -186090.67, 0.000, 0.000, 0.000, 21:07:08.947, 1541902028947
53, -17.57, -29.12, -21.84, -23.89, -178959.66, -178752.89, -179177.64, -186087.52, 0.000, 0.000, 0.000, 21:07:08.947, 1541902028947
54, -17.93, -29.08, -21.73, -23.87, -178918.38, -178713.41, -179136.13, -186086.69, 0.000, 0.000, 0.000, 21:07:08.948, 1541902028948
55, -18.02, -29.08, -21.95, -24.01, -178899.09, -178694.13, -179116.72, -186086.22, 0.000, 0.000, 0.000, 21:07:08.948, 1541902028948
56, -17.81, -29.17, -21.99, -24.05, -178992.86, -178782.36, -179208.38, -186089.42, 0.000, 0.000, 0.000, 21:07:08.948, 1541902028948
57, -17.64, -29.06, -21.86, -23.78, -178982.38, -178770.56, -179196.88, -186088.33, 0.000, 0.000, 0.000, 21:07:08.948, 1541902028948
58, -17.97, -29.12, -21.99, -23.87, -178925.17, -178714.34, -179138.81, -186086.36, 0.000, 0.000, 0.000, 21:07:08.948, 1541902028948
59, -17.88, -28.99, -21.90, -23.67, -178924.52, -178713.19, -179136.70, -186086.84, 0.052, 0.592, 0.754, 21:07:08.948, 1541902028948
60, -17.97, -28.68, -21.61, -23.74, -179002.55, -178787.42, -179213.91, -186090.05, 0.000, 0.000, 0.000, 21:07:08.948, 1541902028948
61, -17.88, -28.95, -21.77, -23.83, -178986.44, -178770.52, -179197.14, -186088.34, 0.000, 0.000, 0.000, 21:07:08.948, 1541902028948
62, -17.90, -28.92, -21.61, -23.74, -178870.77, -178668.94, -179081.64, -186084.03, 0.000, 0.000, 0.000, 21:07:08.948, 1541902028948
63, -18.19, -28.86, -21.88, -23.74, -178866.13, -178703.94, -179088.00, -186083.88, 0.000, 0.000, 0.000, 21:07:08.948, 1541902028948
64, -17.97, -28.86, -22.04, -23.74, -178984.41, -178794.06, -179214.36, -186089.73, 0.000, 0.000, 0.000, 21:07:08.949, 1541902028949
65, -17.70, -28.77, -21.93, -23.89, -178993.45, -178794.38, -179223.80, -186088.84, 0.000, 0.000, 0.000, 21:07:08.949, 1541902028949
66, -17.64, -28.97, -21.88, -23.83, -178896.58, -178699.64, -179125.69, -186085.47, 0.000, 0.000, 0.000, 21:07:08.949, 1541902028949
67, -17.68, -28.86, -21.88, -23.67, -178877.03, -178679.80, -179104.92, -186084.75, 0.000, 0.000, 0.000, 21:07:08.949, 1541902028949
68, -17.61, -28.88, -21.82, -23.74, -178981.94, -178780.00, -179209.11, -186089.58, 0.000, 0.000, 0.000, 21:07:08.949, 1541902028949
69, -17.68, -29.12, -21.84, -24.01, -179039.86, -178833.69, -179265.77, -186090.72, 0.000, 0.000, 0.000, 21:07:08.950, 1541902028950
70, -17.75, -29.03, -22.11, -23.87, -178959.73, -178755.03, -179184.00, -186087.75, 0.056, 0.588, 0.754, 21:07:08.950, 1541902028950
71, -17.90, -29.03, -22.06, -23.89, -178883.67, -178680.70, -179106.98, -186084.69, 0.000, 0.000, 0.000, 21:07:08.950, 1541902028950
72, -17.75, -29.01, -22.02, -24.05, -178931.75, -178725.41, -179154.52, -186087.41, 0.000, 0.000, 0.000, 21:07:08.950, 1541902028950
73, -17.61, -28.97, -22.04, -24.23, -179017.70, -178806.84, -179239.58, -186090.05, 0.000, 0.000, 0.000, 21:07:08.950, 1541902028950
74, -17.77, -28.97, -22.06, -23.94, -178922.41, -178713.80, -179144.58, -186085.63, 0.000, 0.000, 0.000, 21:07:08.950, 1541902028950
75, -17.61, -29.03, -22.17, -23.94, -178904.25, -178700.61, -179126.97, -186085.70, 0.000, 0.000, 0.000, 21:07:08.950, 1541902028950
76, -17.46, -29.19, -21.90, -24.05, -178886.64, -178696.92, -179115.83, -186085.27, 0.000, 0.000, 0.000, 21:07:08.950, 1541902028950
77, -17.79, -28.99, -21.86, -24.05, -178958.70, -178755.70, -179190.27, -186087.92, 0.000, 0.000, 0.000, 21:07:08.950, 1541902028950
78, -17.90, -28.83, -21.66, -23.72, -178911.72, -178711.31, -179143.23, -186086.25, 0.000, 0.000, 0.000, 21:07:08.950, 1541902028950
79, -17.64, -29.03, -21.70, -23.92, -178817.95, -178664.91, -179054.72, -186082.61, 0.000, 0.000, 0.000, 21:07:08.951, 1541902028951
80, -17.59, -29.12, -21.75, -24.18, -178884.72, -178716.20, -179124.58, -186085.44, 0.056, 0.592, 0.762, 21:07:08.951, 1541902028951
81, -17.81, -28.81, -21.61, -23.94, -178992.25, -178805.61, -179231.39, -186089.39, 0.000, 0.000, 0.000, 21:07:08.951, 1541902028951
82, -17.86, -28.95, -21.70, -23.89, -178939.64, -178752.95, -179177.33, -186086.47, 0.000, 0.000, 0.000, 21:07:08.951, 1541902028951
83, -17.95, -29.15, -21.88, -23.74, -178869.25, -178694.45, -179108.59, -186084.84, 0.000, 0.000, 0.000, 21:07:08.952, 1541902028952
84, -17.79, -28.95, -21.93, -23.83, -178826.78, -178696.63, -179080.27, -186083.30, 0.000, 0.000, 0.000, 21:07:08.952, 1541902028952
175, -17.88, -29.06, -21.66, -24.03, -178876.33, -178704.92, -179114.58, -186085.80, 0.000, 0.000, 0.000, 21:07:09.709, 1541902029709
176, -17.81, -29.19, -21.93, -24.01, -178864.36, -178692.95, -179103.52, -186085.31, 0.000, 0.000, 0.000, 21:07:09.709, 1541902029709
177, -17.68, -29.03, -22.02, -23.74, -178946.56, -178771.34, -179185.03, -186087.98, 0.000, 0.000, 0.000, 21:07:09.709, 1541902029709
178, -17.77, -28.97, -21.70, -24.03, -178937.83, -178761.72, -179175.78, -186087.09, 0.000, 0.000, 0.000, 21:07:09.709, 1541902029709
179, -17.90, -28.99, -21.86, -23.67, -178838.84, -178669.20, -179077.30, -186083.73, 0.000, 0.000, 0.000, 21:07:09.709, 1541902029709
180, -17.88, -28.99, -21.88, -23.69, -178835.88, -178680.78, -179080.73, -186083.58, 0.000, 0.000, 0.000, 21:07:09.709, 1541902029709
181, -17.93, -29.21, -21.64, -23.89, -178867.28, -178714.31, -179112.81, -186084.92, 0.050, 0.596, 0.760, 21:07:09.709, 1541902029709
182, -17.75, -29.15, -21.55, -24.01, -178852.95, -178701.03, -179097.97, -186083.63, 0.000, 0.000, 0.000, 21:07:09.709, 1541902029709
183, -17.68, -29.17, -21.61, -24.05, -178753.36, -178643.81, -179004.92, -186080.50, 0.000, 0.000, 0.000, 21:07:09.710, 1541902029710
184, -17.64, -28.92, -21.61, -23.83, -178789.86, -178696.94, -179055.06, -186082.36, 0.000, 0.000, 0.000, 21:07:09.710, 1541902029710
185, -17.64, -28.79, -21.84, -24.01, -178899.33, -178773.53, -179164.63, -186087.16, 0.000, 0.000, 0.000, 21:07:09.710, 1541902029710
186, -17.68, -28.88, -21.88, -23.94, -178930.83, -178798.02, -179196.36, -186087.41, 0.000, 0.000, 0.000, 21:07:09.710, 1541902029710
187, -17.86, -29.08, -21.93, -23.92, -178846.63, -178715.52, -179111.25, -186085.08, 0.000, 0.000, 0.000, 21:07:09.710, 1541902029710
188, -18.04, -29.10, -21.73, -23.83, -178808.27, -178676.78, -179071.53, -186083.31, 0.000, 0.000, 0.000, 21:07:09.710, 1541902029710
189, -17.72, -28.95, -21.88, -23.67, -178862.83, -178728.25, -179126.19, -186085.59, 0.000, 0.000, 0.000, 21:07:09.710, 1541902029710
190, -17.88, -28.95, -21.99, -23.87, -178935.98, -178797.97, -179198.83, -186087.50, 0.000, 0.000, 0.000, 21:07:09.710, 1541902029710
191, -17.84, -28.81, -21.97, -23.80, -178817.34, -178690.50, -179080.81, -186082.73, 0.048, 0.592, 0.756, 21:07:09.710, 1541902029710
192, -17.70, -29.03, -21.99, -23.94, -178764.86, -178667.56, -179035.80, -186080.80, 0.000, 0.000, 0.000, 21:07:09.710, 1541902029710
193, -17.79, -29.21, -21.93, -23.87, -178816.86, -178697.88, -179089.09, -186083.50, 0.000, 0.000, 0.000, 21:07:09.711, 1541902029711
194, -17.81, -29.26, -21.73, -24.03, -178892.14, -178766.20, -179163.13, -186085.78, 0.000, 0.000, 0.000, 21:07:09.711, 1541902029711
195, -17.93, -29.19, -21.66, -23.89, -178773.38, -178682.41, -179069.70, -186082.20, 0.000, 0.000, 0.000, 21:07:09.711, 1541902029711
196, -17.77, -29.12, -21.79, -23.78, -178609.59, -178666.88, -179043.75, -186082.80, 0.000, 0.000, 0.000, 21:07:09.711, 1541902029711
197, -17.64, -28.92, -21.88, -23.78, -178962.98, -178738.64, -179142.19, -186088.53, 0.000, 0.000, 0.000, 21:07:09.711, 1541902029711
198, -17.72, -28.90, -21.93, -23.94, -179213.47, -178843.56, -179252.47, -186092.58, 0.000, 0.000, 0.000, 21:07:09.711, 1541902029711
199, -17.77, -28.99, -21.88, -23.96, -179153.31, -178785.11, -179192.39, -186088.72, 0.000, 0.000, 0.000, 21:07:09.711, 1541902029711
200, -17.86, -29.30, -21.95, -23.98, -179067.84, -178702.25, -179106.95, -186085.27, 0.000, 0.000, 0.000, 21:07:09.711, 1541902029711
201, -17.79, -29.24, -21.82, -23.94, -179108.30, -178741.17, -179147.08, -186087.72, 0.048, 0.588, 0.762, 21:07:09.711, 1541902029711
202, -17.57, -28.97, -21.77, -23.85, -179197.58, -178825.28, -179235.22, -186091.59, 0.000, 0.000, 0.000, 21:07:09.711, 1541902029711
203, -17.72, -28.88, -21.77, -23.80, -179164.84, -178792.69, -179201.66, -186089.86, 0.000, 0.000, 0.000, 21:07:09.711, 1541902029711
204, -17.86, -29.03, -21.90, -23.96, -179093.55, -178723.06, -179128.80, -186087.55, 0.000, 0.000, 0.000, 21:07:09.711, 1541902029711
205, -17.72, -28.74, -21.93, -24.21, -179091.02, -178718.78, -179125.02, -186087.41, 0.000, 0.000, 0.000, 21:07:09.711, 1541902029711
206, -17.68, -28.88, -21.79, -23.94, -179164.14, -178787.33, -179197.59, -186090.83, 0.000, 0.000, 0.000, 21:07:09.711, 1541902029711
207, -17.50, -29.08, -21.61, -23.94, -179178.70, -178799.39, -179211.61, -186090.27, 0.000, 0.000, 0.000, 21:07:09.711, 1541902029711
208, -17.72, -29.10, -21.73, -24.07, -179153.27, -178774.81, -179185.34, -186090.05, 0.000, 0.000, 0.000, 21:07:09.711, 1541902029711
209, -17.90, -28.99, -22.04, -24.05, -179165.92, -178786.72, -179197.77, -186090.73, 0.000, 0.000, 0.000, 21:07:09.711, 1541902029711
210, -18.02, -28.83, -21.86, -23.83, -179207.77, -178824.95, -179239.69, -186092.44, 0.000, 0.000, 0.000, 21:07:09.711, 1541902029711
211, -17.68, -29.03, -21.95, -23.85, -179203.47, -178819.00, -179235.75, -186091.14, 0.000, 0.000, 0.000, 21:07:09.711, 1541902029711
212, -17.86, -29.19, -21.99, -23.89, -179102.28, -178720.66, -179133.38, -186087.77, 0.050, 0.598, 0.762, 21:07:09.712, 1541902029712
213, -17.95, -29.08, -21.88, -23.80, -179089.69, -178708.05, -179119.55, -186087.44, 0.000, 0.000, 0.000, 21:07:09.712, 1541902029712
214, -17.72, -29.01, -21.84, -23.69, -179153.11, -178768.44, -179182.06, -186089.98, 0.000, 0.000, 0.000, 21:07:09.712, 1541902029712
215, -17.68, -28.99, -21.95, -23.78, -179169.14, -178782.75, -179198.42, -186088.80, 0.000, 0.000, 0.000, 21:07:09.712, 1541902029712
216, -17.88, -29.03, -21.84, -23.94, -179105.94, -178721.17, -179134.61, -186087.47, 0.000, 0.000, 0.000, 21:07:09.712, 1541902029712
217, -17.79, -28.86, -21.97, -23.94, -179081.64, -178696.72, -179109.31, -186086.89, 0.000, 0.000, 0.000, 21:07:09.712, 1541902029712
218, -17.68, -28.92, -21.84, -24.12, -179124.53, -178737.75, -179152.41, -186088.80, 0.000, 0.000, 0.000, 21:07:09.712, 1541902029712
219, -17.79, -28.92, -21.82, -24.05, -179219.66, -178828.55, -179247.22, -186092.28, 0.000, 0.000, 0.000, 21:07:09.712, 1541902029712
220, -17.77, -29.01, -21.90, -24.03, -179130.98, -178748.44, -179159.55, -186088.48, 0.000, 0.000, 0.000, 21:07:09.712, 1541902029712
221, -17.70, -29.03, -21.99, -24.12, -179067.31, -178712.52, -179107.89, -186086.47, 0.000, 0.000, 0.000, 21:07:09.712, 1541902029712
222, -17.75, -29.06, -22.08, -23.87, -179132.53, -178760.89, -179178.86, -186090.02, 0.056, 0.592, 0.764, 21:07:09.712, 1541902029712
223, -17.66, -28.81, -21.90, -23.89, -179218.61, -178837.67, -179263.91, -186092.95, 0.000, 0.000, 0.000, 21:07:09.712, 1541902029712
224, -17.70, -28.88, -21.77, -23.72, -179188.70, -178808.31, -179233.92, -186090.97, 0.000, 0.000, 0.000, 21:07:09.712, 1541902029712
225, -17.88, -28.92, -21.73, -23.76, -179116.08, -178738.44, -179160.94, -186089.02, 0.000, 0.000, 0.000, 21:07:09.712, 1541902029712
226, -17.90, -28.97, -21.77, -23.60, -179145.58, -178766.56, -179190.38, -186090.94, 0.000, 0.000, 0.000, 21:07:09.712, 1541902029712
227, -17.95, -28.95, -21.77, -23.67, -179224.38, -178841.08, -179268.27, -186093.78, 0.000, 0.000, 0.000, 21:07:09.712, 1541902029712
228, -17.68, -29.08, -22.04, -23.83, -179244.58, -178858.50, -179287.20, -186094.19, 0.000, 0.000, 0.000, 21:07:09.712, 1541902029712
229, -17.77, -29.21, -21.77, -23.67, -179181.91, -178797.41, -179224.81, -186092.02, 0.000, 0.000, 0.000, 21:07:09.712, 1541902029712
230, -17.79, -29.12, -21.68, -23.63, -179151.39, -178766.55, -179193.08, -186090.47, 0.000, 0.000, 0.000, 21:07:09.712, 1541902029712
231, -17.75, -29.10, -21.84, -23.67, -179195.88, -178807.89, -179236.53, -186092.61, 0.000, 0.000, 0.000, 21:07:09.713, 1541902029713
232, -17.81, -29.01, -22.04, -23.67, -179171.48, -178782.45, -179212.02, -186090.81, 0.050, 0.598, 0.762, 21:07:09.713, 1541902029713
233, -17.86, -28.92, -21.73, -23.85, -179112.66, -178726.78, -179152.48, -186088.97, 0.000, 0.000, 0.000, 21:07:09.713, 1541902029713
234, -17.90, -29.08, -21.73, -23.83, -179140.59, -178768.48, -179179.13, -186090.17, 0.000, 0.000, 0.000, 21:07:09.713, 1541902029713
235, -17.68, -29.06, -21.97, -23.98, -179215.67, -178833.31, -179254.33, -186093.64, 0.000, 0.000, 0.000, 21:07:09.713, 1541902029713
236, -17.75, -29.30, -21.84, -24.03, -179241.84, -178853.88, -179280.16, -186093.11, 0.000, 0.000, 0.000, 21:07:09.713, 1541902029713
237, -17.79, -29.41, -21.86, -24.01, -179172.06, -178785.45, -179208.81, -186090.83, 0.000, 0.000, 0.000, 21:07:09.713, 1541902029713
238, -17.68, -29.26, -21.79, -23.94, -179102.38, -178716.92, -179137.72, -186088.09, 0.000, 0.000, 0.000, 21:07:09.713, 1541902029713
239, -17.79, -29.26, -21.73, -23.78, -179108.41, -178721.39, -179143.41, -186088.50, 0.000, 0.000, 0.000, 21:07:09.713, 1541902029713
240, -17.59, -29.12, -21.97, -23.56, -179225.83, -178833.19, -179260.31, -186091.98, 0.000, 0.000, 0.000, 21:07:09.713, 1541902029713
241, -17.57, -29.03, -22.08, -23.72, -179152.63, -178761.31, -179185.66, -186089.31, 0.000, 0.000, 0.000, 21:07:09.713, 1541902029713
242, -17.97, -29.01, -21.82, -23.80, -179134.86, -178744.59, -179168.42, -186088.92, 0.054, 0.596, 0.760, 21:07:09.713, 1541902029713
243, -18.08, -29.03, -21.82, -23.69, -179169.30, -178776.22, -179201.44, -186090.83, 0.000, 0.000, 0.000, 21:07:09.713, 1541902029713
244, -17.68, -29.03, -21.79, -23.51, -179245.22, -178847.61, -179276.34, -186094.11, 0.000, 0.000, 0.000, 21:07:09.714, 1541902029714
245, -17.55, -28.90, -21.59, -23.74, -179178.50, -178783.23, -179209.91, -186091.19, 0.000, 0.000, 0.000, 21:07:09.714, 1541902029714
246, -17.86, -29.03, -21.88, -23.85, -179118.78, -178724.86, -179149.61, -186088.64, 0.000, 0.000, 0.000, 21:07:09.714, 1541902029714
247, -17.88, -29.17, -21.99, -23.96, -179169.88, -178772.75, -179200.13, -186090.69, 0.000, 0.000, 0.000, 21:07:09.714, 1541902029714
248, -17.97, -29.08, -22.42, -23.94, -179241.31, -178841.23, -179271.94, -186093.11, 0.000, 0.000, 0.000, 21:07:09.715, 1541902029715
249, -17.70, -29.10, -22.17, -23.92, -179195.03, -178795.39, -179224.80, -186090.89, 0.000, 0.000, 0.000, 21:07:09.715, 1541902029715
250, -17.59, -29.21, -22.11, -23.76, -179104.05, -178705.47, -179132.23, -186087.67, 0.000, 0.000, 0.000, 21:07:09.715, 1541902029715
251, -17.81, -28.92, -21.95, -23.63, -179148.88, -178747.56, -179175.72, -186089.94, 0.000, 0.000, 0.000, 21:07:09.715, 1541902029715
252, -17.72, -28.92, -21.90, -23.78, -179224.14, -178819.47, -179251.33, -186093.11, 0.064, 0.588, 0.756, 21:07:09.717, 1541902029717
253, -17.86, -29.06, -21.77, -23.74, -179174.11, -178776.20, -179200.09, -186089.89, 0.000, 0.000, 0.000, 21:07:09.717, 1541902029717
254, -17.75, -29.03, -21.90, -23.92, -179088.89, -178704.16, -179114.27, -186087.30, 0.000, 0.000, 0.000, 21:07:09.717, 1541902029717
0, -17.86, -28.97, -21.79, -23.72, -179134.50, -178735.78, -179160.11, -186089.38, 0.000, 0.000, 0.000, 21:07:09.718, 1541902029718
1, -17.88, -28.88, -21.99, -23.76, -179198.78, -178796.45, -179223.61, -186091.16, 0.000, 0.000, 0.000, 21:07:09.718, 1541902029718
2, -17.79, -28.92, -21.79, -23.89, -179135.34, -178743.67, -179162.61, -186089.70, 0.000, 0.000, 0.000, 21:07:09.718, 1541902029718
3, -17.64, -28.83, -21.68, -24.14, -179150.23, -178765.64, -179184.75, -186090.72, 0.000, 0.000, 0.000, 21:07:09.718, 1541902029718
4, -17.57, -28.81, -21.84, -23.94, -179229.89, -178831.52, -179263.83, -186094.19, 0.000, 0.000, 0.000, 21:07:09.718, 1541902029718
5, -17.48, -28.95, -21.73, -23.83, -179217.28, -178817.80, -179250.23, -186092.81, 0.000, 0.000, 0.000, 21:07:09.718, 1541902029718
6, -17.75, -29.06, -21.93, -23.85, -179150.59, -178753.44, -179182.47, -186090.94, 0.056, 0.582, 0.756, 21:07:09.718, 1541902029718
7, -17.75, -28.88, -21.93, -24.05, -179122.22, -178740.48, -179153.94, -186089.70, 0.000, 0.000, 0.000, 21:07:09.718, 1541902029718
8, -17.75, -28.95, -21.88, -23.87, -179168.36, -178777.61, -179199.47, -186092.42, 0.000, 0.000, 0.000, 21:07:09.718, 1541902029718
9, -17.81, -29.01, -21.68, -23.85, -179233.06, -178834.92, -179263.16, -186094.58, 0.000, 0.000, 0.000, 21:07:09.719, 1541902029719
10, -17.81, -29.10, -21.66, -23.83, -179182.23, -178785.05, -179210.69, -186092.58, 0.000, 0.000, 0.000, 21:07:09.719, 1541902029719
11, -17.93, -29.06, -21.79, -23.98, -179116.97, -178721.34, -179143.77, -186089.83, 0.000, 0.000, 0.000, 21:07:09.719, 1541902029719
12, -17.79, -28.97, -21.84, -23.92, -179111.20, -178714.44, -179137.77, -186089.70, 0.000, 0.000, 0.000, 21:07:09.719, 1541902029719
13, -17.64, -29.08, -22.04, -23.83, -179182.00, -178781.52, -179207.98, -186091.67, 0.000, 0.000, 0.000, 21:07:09.719, 1541902029719
14, -17.81, -29.10, -21.79, -23.80, -179140.70, -178740.69, -179166.41, -186089.38, 0.000, 0.000, 0.000, 21:07:09.719, 1541902029719
15, -18.02, -29.03, -21.93, -23.96, -179138.47, -178738.77, -179164.45, -186090.09, 0.000, 0.000, 0.000, 21:07:09.719, 1541902029719
16, -17.86, -29.06, -21.73, -24.07, -179144.16, -178742.36, -179168.38, -186090.42, 0.044, 0.586, 0.752, 21:07:09.719, 1541902029719
17, -17.99, -28.95, -21.68, -24.01, -179194.84, -178789.05, -179218.58, -186092.48, 0.000, 0.000, 0.000, 21:07:09.719, 1541902029719
18, -17.70, -28.90, -21.86, -24.05, -179171.02, -178764.70, -179194.28, -186090.73, 0.000, 0.000, 0.000, 21:07:09.719, 1541902029719
19, -17.59, -29.03, -22.11, -23.89, -179114.41, -178710.11, -179137.42, -186089.44, 0.000, 0.000, 0.000, 21:07:09.720, 1541902029720
20, -17.68, -29.19, -21.99, -23.83, -179083.95, -178680.44, -179106.83, -186088.34, 0.000, 0.000, 0.000, 21:07:09.720, 1541902029720
22, -17.77, -29.21, -21.90, -23.89, -178927.50, -178716.55, -179088.20, -186083.94, 0.000, 0.000, 0.000, 21:07:10.734, 1541902030734
23, -17.70, -29.19, -21.77, -23.63, -178941.73, -178708.14, -179102.84, -186084.92, 0.000, 0.000, 0.000, 21:07:10.812, 1541902030812
24, -17.64, -29.19, -21.79, -23.65, -179054.55, -178814.86, -179215.31, -186088.77, 0.046, 0.594, 0.758, 21:07:10.812, 1541902030812
25, -17.64, -29.26, -21.82, -23.94, -178978.34, -178740.95, -179140.02, -186084.80, 0.000, 0.000, 0.000, 21:07:10.812, 1541902030812
26, -17.97, -29.26, -21.44, -23.96, -178933.22, -178696.92, -179094.03, -186083.77, 0.000, 0.000, 0.000, 21:07:10.812, 1541902030812
27, -17.86, -29.03, -21.70, -23.83, -178945.17, -178707.69, -179104.80, -186085.03, 0.000, 0.000, 0.000, 21:07:10.812, 1541902030812
28, -17.64, -28.88, -21.77, -23.74, -179027.77, -178784.48, -179186.75, -186087.59, 0.000, 0.000, 0.000, 21:07:10.812, 1541902030812
29, -17.61, -29.12, -21.66, -24.01, -178967.02, -178731.19, -179125.89, -186084.80, 0.000, 0.000, 0.000, 21:07:10.812, 1541902030812
30, -17.81, -29.30, -21.77, -23.60, -178868.95, -178667.08, -179034.77, -186081.81, 0.000, 0.000, 0.000, 21:07:10.813, 1541902030813
31, -17.88, -29.37, -21.84, -23.56, -178896.98, -178675.19, -179065.47, -186082.77, 0.000, 0.000, 0.000, 21:07:10.813, 1541902030813
32, -17.70, -29.12, -21.77, -23.87, -178941.02, -178711.41, -179107.78, -186083.78, 0.000, 0.000, 0.000, 21:07:10.813, 1541902030813
33, -17.64, -29.19, -21.70, -23.92, -178969.94, -178738.09, -179135.19, -186084.13, 0.000, 0.000, 0.000, 21:07:10.813, 1541902030813
34, -17.61, -29.15, -21.88, -23.83, -178911.78, -178682.00, -179076.06, -186082.89, 0.050, 0.600, 0.760, 21:07:10.813, 1541902030813
35, -17.79, -29.01, -21.99, -24.03, -178926.17, -178694.86, -179089.17, -186083.63, 0.000, 0.000, 0.000, 21:07:10.813, 1541902030813
36, -17.84, -29.08, -22.06, -24.01, -179032.13, -178795.86, -179194.73, -186088.64, 0.000, 0.000, 0.000, 21:07:10.813, 1541902030813
37, -17.70, -29.08, -21.99, -23.96, -179007.88, -178778.34, -179172.77, -186086.78, 0.000, 0.000, 0.000, 21:07:10.813, 1541902030813
38, -17.61, -29.12, -21.90, -23.89, -178944.33, -178726.64, -179116.30, -186084.84, 0.000, 0.000, 0.000, 21:07:10.813, 1541902030813
39, -17.81, -29.19, -21.95, -23.96, -178978.06, -178748.81, -179149.69, -186086.58, 0.000, 0.000, 0.000, 21:07:10.814, 1541902030814
40, -17.70, -29.15, -21.82, -23.98, -179016.92, -178784.31, -179187.56, -186088.77, 0.000, 0.000, 0.000, 21:07:10.814, 1541902030814
150, -17.81, -29.26, -21.84, -24.05, -179018.63, -178803.06, -179223.97, -186090.25, 0.000, 0.000, 0.000, 21:07:11.244, 1541902031244
151, -17.93, -29.10, -21.88, -23.92, -178965.92, -178751.25, -179170.73, -186089.08, 0.000, 0.000, 0.000, 21:07:11.457, 1541902031457
152, -17.95, -28.88, -22.11, -24.01, -178994.23, -178777.89, -179198.84, -186090.11, 0.000, 0.000, 0.000, 21:07:11.457, 1541902031457
153, -17.79, -29.03, -21.97, -23.83, -179076.61, -178856.17, -179279.63, -186093.11, 0.000, 0.000, 0.000, 21:07:11.458, 1541902031458
154, -17.81, -29.06, -21.86, -23.78, -179059.44, -178837.91, -179261.78, -186091.66, 0.000, 0.000, 0.000, 21:07:11.458, 1541902031458
155, -17.68, -28.97, -22.02, -23.63, -178995.69, -178775.39, -179197.11, -186089.89, 0.000, 0.000, 0.000, 21:07:11.458, 1541902031458
156, -17.75, -28.99, -21.99, -23.56, -178950.47, -178730.64, -179150.36, -186087.94, 0.048, 0.584, 0.758, 21:07:11.458, 1541902031458
157, -17.75, -29.15, -21.88, -23.56, -179031.83, -178808.19, -179232.39, -186091.41, 0.000, 0.000, 0.000, 21:07:11.458, 1541902031458
158, -18.04, -29.28, -21.93, -24.05, -179038.30, -178812.63, -179237.09, -186090.42, 0.000, 0.000, 0.000, 21:07:11.458, 1541902031458
159, -17.86, -28.95, -22.06, -23.74, -178928.70, -178716.97, -179126.73, -186086.53, 0.000, 0.000, 0.000, 21:07:11.458, 1541902031458
160, -17.93, -29.15, -21.90, -23.78, -178923.73, -178716.09, -179121.53, -186086.78, 0.000, 0.000, 0.000, 21:07:11.458, 1541902031458
161, -17.79, -28.92, -21.84, -23.92, -179016.09, -178795.20, -179212.39, -186090.84, 0.000, 0.000, 0.000, 21:07:11.458, 1541902031458
162, -17.79, -28.72, -22.02, -23.80, -179035.95, -178812.61, -179231.34, -186090.92, 0.000, 0.000, 0.000, 21:07:11.459, 1541902031459
163, -17.81, -28.88, -21.82, -24.12, -178943.08, -178722.39, -179137.63, -186087.45, 0.000, 0.000, 0.000, 21:07:11.459, 1541902031459
164, -17.88, -29.33, -21.82, -23.92, -178967.17, -178744.97, -179160.83, -186088.64, 0.000, 0.000, 0.000, 21:07:11.459, 1541902031459
165, -17.97, -29.10, -22.06, -24.05, -178976.53, -178752.11, -179169.25, -186089.08, 0.000, 0.000, 0.000, 21:07:11.459, 1541902031459
166, -17.79, -29.10, -22.11, -24.01, -179023.77, -178795.55, -179216.27, -186089.86, 0.052, 0.592, 0.758, 21:07:11.459, 1541902031459
167, -17.72, -29.19, -21.95, -23.74, -178971.23, -178745.31, -179163.28, -186088.13, 0.000, 0.000, 0.000, 21:07:11.459, 1541902031459
168, -17.88, -29.33, -21.88, -23.69, -178881.81, -178687.13, -179084.30, -186085.34, 0.000, 0.000, 0.000, 21:07:11.459, 1541902031459
169, -17.90, -29.19, -21.84, -23.74, -178918.64, -178717.25, -179130.88, -186086.88, 0.000, 0.000, 0.000, 21:07:11.459, 1541902031459
170, -17.93, -29.08, -21.77, -23.72, -179024.56, -178807.63, -179236.08, -186090.58, 0.000, 0.000, 0.000, 21:07:11.459, 1541902031459
171, -17.68, -29.15, -21.88, -23.89, -178963.95, -178748.77, -179175.67, -186088.08, 0.000, 0.000, 0.000, 21:07:11.459, 1541902031459
172, -17.68, -28.99, -21.95, -23.87, -178885.30, -178685.11, -179099.19, -186085.19, 0.000, 0.000, 0.000, 21:07:11.460, 1541902031460
173, -17.64, -29.01, -22.08, -23.92, -178934.63, -178753.44, -179163.84, -186087.41, 0.000, 0.000, 0.000, 21:07:11.460, 1541902031460
174, -17.81, -29.24, -21.77, -24.03, -179025.67, -178820.45, -179256.56, -186090.84, 0.000, 0.000, 0.000, 21:07:11.460, 1541902031460
175, -18.02, -29.10, -21.64, -24.01, -178972.06, -178767.70, -179202.11, -186087.67, 0.000, 0.000, 0.000, 21:07:11.460, 1541902031460
176, -17.81, -28.90, -21.88, -24.01, -178876.59, -178688.36, -179107.05, -186084.34, 0.046, 0.592, 0.762, 21:07:11.460, 1541902031460
177, -17.68, -29.21, -21.86, -23.94, -178919.27, -178726.36, -179148.72, -186086.36, 0.000, 0.000, 0.000, 21:07:11.460, 1541902031460
178, -17.70, -28.92, -21.95, -23.96, -179014.09, -178811.25, -179242.34, -186090.38, 0.000, 0.000, 0.000, 21:07:11.460, 1541902031460
179, -17.64, -28.79, -22.06, -23.89, -179015.77, -178811.17, -179243.81, -186089.59, 0.000, 0.000, 0.000, 21:07:11.460, 1541902031460
180, -17.70, -29.08, -21.88, -23.67, -178921.81, -178719.94, -179149.94, -186086.16, 0.000, 0.000, 0.000, 21:07:11.460, 1541902031460
181, -17.61, -29.08, -22.11, -23.89, -178902.42, -178701.19, -179129.64, -186085.52, 0.000, 0.000, 0.000, 21:07:11.460, 1541902031460
182, -17.68, -29.15, -22.15, -23.83, -178964.36, -178759.83, -179190.95, -186088.66, 0.000, 0.000, 0.000, 21:07:11.460, 1541902031460
183, -17.72, -29.08, -21.99, -23.92, -179007.50, -178800.47, -179233.41, -186090.05, 0.000, 0.000, 0.000, 21:07:11.461, 1541902031461
184, -17.70, -29.01, -21.97, -23.72, -178950.42, -178745.02, -179176.09, -186088.13, 0.000, 0.000, 0.000, 21:07:11.461, 1541902031461
185, -17.81, -28.92, -21.77, -23.87, -178923.70, -178718.02, -179148.42, -186087.16, 0.000, 0.000, 0.000, 21:07:11.461, 1541902031461
186, -17.64, -29.06, -21.68, -23.96, -178931.91, -178724.00, -179155.75, -186087.45, 0.046, 0.592, 0.764, 21:07:11.461, 1541902031461
187, -17.66, -29.17, -21.95, -24.07, -178983.39, -178772.36, -179206.58, -186088.30, 0.000, 0.000, 0.000, 21:07:11.461, 1541902031461
188, -17.64, -29.17, -22.11, -23.78, -178918.94, -178715.98, -179141.89, -186085.95, 0.000, 0.000, 0.000, 21:07:11.461, 1541902031461
189, -17.64, -29.08, -21.93, -24.03, -178870.45, -178678.86, -179092.91, -186084.61, 0.000, 0.000, 0.000, 21:07:11.461, 1541902031461
190, -17.59, -28.81, -22.08, -24.01, -178898.47, -178694.23, -179120.33, -186086.11, 0.000, 0.000, 0.000, 21:07:11.461, 1541902031461
191, -17.84, -29.08, -21.84, -23.96, -179005.13, -178794.19, -179225.53, -186089.36, 0.000, 0.000, 0.000, 21:07:11.461, 1541902031461
192, -18.08, -28.86, -21.79, -23.96, -178959.89, -178761.44, -179179.64, -186088.25, 0.000, 0.000, 0.000, 21:07:11.461, 1541902031461
193, -17.95, -29.19, -21.66, -24.05, -178913.45, -178719.09, -179132.63, -186086.80, 0.000, 0.000, 0.000, 21:07:11.461, 1541902031461
194, -17.59, -29.03, -21.61, -24.12, -178932.77, -178728.88, -179150.88, -186087.31, 0.000, 0.000, 0.000, 21:07:11.462, 1541902031462
195, -17.59, -28.92, -21.82, -23.98, -179037.78, -178830.09, -179255.64, -186091.20, 0.000, 0.000, 0.000, 21:07:11.462, 1541902031462
196, -17.95, -29.21, -21.93, -23.94, -178999.30, -178792.11, -179216.69, -186089.47, 0.038, 0.592, 0.754, 21:07:11.462, 1541902031462
197, -18.02, -29.21, -21.75, -23.94, -178886.28, -178681.94, -179103.56, -186084.75, 0.000, 0.000, 0.000, 21:07:11.462, 1541902031462
198, -17.70, -28.88, -21.77, -23.74, -178911.20, -178704.72, -179128.06, -186085.84, 0.000, 0.000, 0.000, 21:07:11.462, 1541902031462
199, -17.68, -28.88, -21.66, -23.47, -179041.02, -178830.02, -179257.23, -186091.66, 0.000, 0.000, 0.000, 21:07:11.462, 1541902031462
200, -17.75, -28.92, -21.70, -23.83, -178996.55, -178785.92, -179211.56, -186089.16, 0.000, 0.000, 0.000, 21:07:11.462, 1541902031462
201, -18.02, -28.81, -21.73, -23.80, -178911.45, -178702.02, -179125.47, -186086.11, 0.000, 0.000, 0.000, 21:07:11.462, 1541902031462
202, -17.86, -28.86, -21.75, -23.74, -178901.48, -178690.17, -179114.16, -186085.84, 0.000, 0.000, 0.000, 21:07:11.463, 1541902031463
126, -17.64, -29.08, -21.73, -24.07, -179164.41, -178769.17, -179187.94, -186091.16, 0.000, 0.000, 0.000, 21:07:12.508, 1541902032508
127, -17.70, -29.08, -21.77, -23.83, -179207.36, -178809.02, -179230.05, -186091.88, 0.000, 0.000, 0.000, 21:07:12.508, 1541902032508
128, -17.68, -28.86, -21.93, -23.83, -179119.88, -178723.47, -179141.61, -186088.45, 0.000, 0.000, 0.000, 21:07:12.509, 1541902032509
129, -17.64, -28.83, -21.84, -23.83, -179050.67, -178665.00, -179073.56, -186086.20, 0.000, 0.000, 0.000, 21:07:12.509, 1541902032509
130, -17.70, -29.01, -21.73, -23.92, -179088.81, -178729.38, -179127.19, -186088.23, 0.000, 0.000, 0.000, 21:07:12.509, 1541902032509
131, -17.93, -28.79, -21.73, -23.78, -179205.70, -178820.61, -179248.05, -186092.75, 0.000, 0.000, 0.000, 21:07:12.509, 1541902032509
132, -17.77, -28.86, -21.84, -23.87, -179191.92, -178804.19, -179233.00, -186092.59, 0.000, 0.000, 0.000, 21:07:12.509, 1541902032509
133, -17.90, -29.15, -21.84, -23.74, -179130.55, -178743.45, -179171.33, -186090.31, 0.044, 0.592, 0.760, 21:07:12.509, 1541902032509
134, -18.02, -29.30, -21.90, -23.67, -179133.77, -178744.55, -179173.59, -186090.47, 0.000, 0.000, 0.000, 21:07:12.509, 1541902032509
135, -17.88, -29.30, -21.84, -23.72, -179161.50, -178768.28, -179200.55, -186091.09, 0.000, 0.000, 0.000, 21:07:12.509, 1541902032509
136, -17.57, -29.03, -21.79, -24.05, -179125.23, -178737.81, -179163.33, -186088.89, 0.000, 0.000, 0.000, 21:07:12.509, 1541902032509
137, -17.75, -28.81, -21.75, -23.85, -179094.33, -178721.09, -179131.66, -186088.45, 0.000, 0.000, 0.000, 21:07:12.509, 1541902032509
138, -17.84, -29.15, -21.90, -23.78, -179120.58, -178735.39, -179157.70, -186089.75, 0.000, 0.000, 0.000, 21:07:12.509, 1541902032509
139, -17.70, -29.35, -21.77, -23.92, -179190.38, -178801.30, -179227.88, -186092.64, 0.000, 0.000, 0.000, 21:07:12.510, 1541902032510
140, -17.72, -29.10, -21.82, -24.01, -179143.50, -178759.44, -179179.92, -186089.91, 0.000, 0.000, 0.000, 21:07:12.510, 1541902032510
141, -18.04, -28.92, -22.06, -23.74, -179048.75, -178678.94, -179084.16, -186086.78, 0.000, 0.000, 0.000, 21:07:12.510, 1541902032510
142, -17.95, -28.90, -22.08, -23.96, -179057.61, -178676.44, -179092.55, -186087.25, 0.000, 0.000, 0.000, 21:07:12.510, 1541902032510
143, -17.75, -28.92, -21.93, -23.67, -179116.03, -178730.91, -179149.22, -186089.75, 0.044, 0.590, 0.754, 21:07:12.510, 1541902032510
144, -17.79, -28.86, -21.84, -23.60, -179132.63, -178745.23, -179164.83, -186089.20, 0.000, 0.000, 0.000, 21:07:12.510, 1541902032510
145, -17.77, -28.92, -21.84, -23.94, -179062.80, -178677.88, -179094.73, -186087.14, 0.000, 0.000, 0.000, 21:07:12.510, 1541902032510
146, -18.04, -29.10, -21.77, -23.74, -179062.03, -178675.38, -179093.34, -186087.44, 0.000, 0.000, 0.000, 21:07:12.510, 1541902032510
147, -17.90, -29.12, -21.82, -23.56, -179110.80, -178720.91, -179141.36, -186090.20, 0.000, 0.000, 0.000, 21:07:12.510, 1541902032510
148, -18.24, -29.03, -21.75, -23.87, -179177.77, -178787.42, -179208.72, -186092.14, 0.000, 0.000, 0.000, 21:07:12.510, 1541902032510
149, -18.08, -29.01, -21.75, -23.89, -179078.23, -178705.95, -179109.48, -186087.78, 0.000, 0.000, 0.000, 21:07:12.510, 1541902032510
150, -17.81, -29.01, -21.95, -23.83, -179019.41, -178655.36, -179052.83, -186085.11, 0.000, 0.000, 0.000, 21:07:12.511, 1541902032511
151, -17.99, -29.08, -22.04, -23.78, -179056.83, -178706.59, -179104.20, -186087.20, 0.000, 0.000, 0.000, 21:07:12.511, 1541902032511
152, -17.81, -29.15, -21.82, -23.76, -179156.31, -178782.83, -179206.25, -186090.83, 0.000, 0.000, 0.000, 21:07:12.511, 1541902032511
153, -17.90, -29.19, -21.70, -23.83, -179110.42, -178736.95, -179159.89, -186089.33, 0.044, 0.592, 0.752, 21:07:12.511, 1541902032511
154, -17.81, -29.01, -21.59, -23.96, -179061.77, -178688.91, -179110.17, -186088.06, 0.000, 0.000, 0.000, 21:07:12.511, 1541902032511
155, -17.70, -29.08, -21.61, -23.85, -179111.50, -178735.42, -179158.64, -186090.66, 0.000, 0.000, 0.000, 21:07:12.511, 1541902032511
156, -17.57, -29.12, -21.88, -23.89, -179231.95, -178851.50, -179279.22, -186094.73, 0.000, 0.000, 0.000, 21:07:12.511, 1541902032511
157, -17.79, -29.19, -21.84, -24.01, -179145.77, -178767.39, -179192.13, -186090.38, 0.000, 0.000, 0.000, 21:07:12.511, 1541902032511
158, -18.08, -28.99, -21.90, -23.94, -179080.53, -178712.73, -179127.97, -186088.34, 0.000, 0.000, 0.000, 21:07:12.511, 1541902032511
159, -18.02, -29.30, -21.93, -23.96, -179113.17, -178750.66, -179167.16, -186090.31, 0.000, 0.000, 0.000, 21:07:12.511, 1541902032511
160, -17.84, -29.06, -21.77, -23.85, -179207.72, -178831.58, -179261.05, -186093.59, 0.000, 0.000, 0.000, 21:07:12.511, 1541902032511
161, -17.77, -29.08, -21.82, -23.72, -179125.95, -178749.84, -179178.86, -186089.75, 0.000, 0.000, 0.000, 21:07:12.512, 1541902032512
162, -17.79, -29.15, -21.93, -23.56, -179079.08, -178703.69, -179131.03, -186088.70, 0.000, 0.000, 0.000, 21:07:12.512, 1541902032512
163, -17.97, -28.88, -21.99, -23.74, -179084.55, -178708.42, -179136.33, -186088.81, 0.000, 0.000, 0.000, 21:07:12.512, 1541902032512
164, -17.70, -28.95, -21.95, -23.94, -179145.50, -178766.25, -179196.88, -186091.09, 0.050, 0.598, 0.752, 21:07:12.512, 1541902032512
165, -17.52, -29.01, -21.59, -23.98, -179144.78, -178764.13, -179195.06, -186090.38, 0.000, 0.000, 0.000, 21:07:12.512, 1541902032512
166, -17.64, -29.21, -21.75, -24.03, -179064.58, -178699.73, -179114.84, -186087.63, 0.000, 0.000, 0.000, 21:07:12.512, 1541902032512
167, -17.79, -28.97, -21.77, -23.83, -179059.45, -178717.20, -179109.06, -186087.36, 0.000, 0.000, 0.000, 21:07:12.512, 1541902032512
168, -17.84, -29.15, -21.66, -23.80, -179115.63, -178749.64, -179164.33, -186089.59, 0.000, 0.000, 0.000, 21:07:12.512, 1541902032512
169, -17.84, -29.03, -21.70, -24.05, -179145.05, -178778.20, -179193.75, -186089.94, 0.000, 0.000, 0.000, 21:07:12.512, 1541902032512
170, -17.93, -29.01, -21.82, -23.94, -179064.25, -178714.55, -179112.59, -186087.41, 0.000, 0.000, 0.000, 21:07:12.512, 1541902032512
171, -17.77, -28.99, -21.55, -24.05, -179058.17, -178701.88, -179105.66, -186086.78, 0.000, 0.000, 0.000, 21:07:12.512, 1541902032512
172, -17.41, -28.92, -21.77, -23.92, -179102.38, -178756.55, -179155.91, -186089.52, 0.000, 0.000, 0.000, 21:07:12.512, 1541902032512
173, -17.64, -28.92, -22.11, -23.85, -179146.91, -178793.47, -179203.34, -186090.27, 0.000, 0.000, 0.000, 21:07:12.513, 1541902032513
174, -17.75, -28.90, -21.77, -23.96, -179019.86, -178699.00, -179085.67, -186085.52, 0.054, 0.592, 0.750, 21:07:12.513, 1541902032513
175, -17.79, -28.88, -21.70, -23.83, -178974.77, -178695.89, -179056.05, -186084.66, 0.000, 0.000, 0.000, 21:07:12.513, 1541902032513
176, -17.81, -29.06, -21.90, -23.83, -179075.42, -178759.88, -179161.61, -186089.23, 0.000, 0.000, 0.000, 21:07:12.513, 1541902032513
177, -17.66, -28.99, -21.82, -23.87, -179119.55, -178794.17, -179205.70, -186089.98, 0.000, 0.000, 0.000, 21:07:12.513, 1541902032513
178, -17.66, -29.08, -21.88, -23.94, -179040.63, -178732.52, -179126.78, -186087.23, 0.000, 0.000, 0.000, 21:07:12.513, 1541902032513
179, -17.75, -28.99, -22.11, -23.63, -179014.02, -178708.97, -179099.09, -186086.89, 0.000, 0.000, 0.000, 21:07:12.513, 1541902032513
180, -17.79, -29.24, -21.86, -23.94, -179040.39, -178737.38, -179123.72, -186088.48, 0.000, 0.000, 0.000, 21:07:12.513, 1541902032513
181, -17.59, -29.15, -21.75, -23.96, -179122.67, -178805.66, -179205.13, -186091.25, 0.000, 0.000, 0.000, 21:07:12.513, 1541902032513
182, -17.48, -29.08, -21.84, -23.83, -179086.28, -178768.42, -179167.38, -186088.59, 0.000, 0.000, 0.000, 21:07:12.514, 1541902032514
183, -17.81, -29.06, -22.28, -23.72, -179046.05, -178729.38, -179126.56, -186087.56, 0.000, 0.000, 0.000, 21:07:12.514, 1541902032514
184, -17.81, -29.08, -22.02, -23.74, -179055.11, -178737.33, -179135.08, -186088.56, 0.046, 0.590, 0.754, 21:07:12.514, 1541902032514
185, -17.81, -29.21, -21.68, -23.78, -179128.14, -178807.56, -179208.06, -186091.30, 0.000, 0.000, 0.000, 21:07:12.514, 1541902032514
186, -17.95, -29.12, -21.75, -23.89, -179148.08, -178825.59, -179226.77, -186091.44, 0.000, 0.000, 0.000, 21:07:12.514, 1541902032514
187, -17.95, -29.03, -21.86, -23.85, -179081.44, -178760.48, -179159.08, -186089.13, 0.000, 0.000, 0.000, 21:07:12.514, 1541902032514
188, -17.70, -28.90, -21.79, -23.76, -179052.53, -178731.45, -179129.95, -186087.55, 0.000, 0.000, 0.000, 21:07:12.514, 1541902032514
189, -17.86, -29.03, -21.93, -23.85, -179138.91, -178813.53, -179215.08, -186091.25, 0.000, 0.000, 0.000, 21:07:12.514, 1541902032514
190, -17.75, -29.24, -21.90, -23.72, -179119.63, -178793.25, -179195.16, -186090.00, 0.000, 0.000, 0.000, 21:07:12.514, 1541902032514
191, -17.66, -28.92, -21.88, -23.56, -179059.08, -178736.36, -179133.77, -186088.28, 0.000, 0.000, 0.000, 21:07:12.515, 1541902032515
192, -18.02, -28.97, -21.84, -23.80, -179029.91, -178722.98, -179104.80, -186087.25, 0.000, 0.000, 0.000, 21:07:12.515, 1541902032515
193, -17.79, -29.03, -21.59, -23.80, -179125.36, -178805.61, -179200.17, -186091.41, 0.000, 0.000, 0.000, 21:07:12.515, 1541902032515
194, -17.79, -29.19, -21.77, -23.87, -179214.27, -178888.69, -179288.86, -186094.22, 0.042, 0.590, 0.756, 21:07:12.515, 1541902032515
195, -17.72, -29.12, -21.93, -23.74, -179119.44, -178796.00, -179193.28, -186090.81, 0.000, 0.000, 0.000, 21:07:12.515, 1541902032515
196, -17.70, -28.95, -21.86, -23.83, -179079.69, -178756.33, -179152.84, -186088.81, 0.000, 0.000, 0.000, 21:07:12.515, 1541902032515
197, -17.81, -28.97, -21.84, -23.72, -179117.20, -178791.47, -179188.91, -186090.53, 0.000, 0.000, 0.000, 21:07:12.515, 1541902032515
198, -17.46, -29.19, -21.93, -23.63, -179141.89, -178813.61, -179211.91, -186090.72, 0.000, 0.000, 0.000, 21:07:12.515, 1541902032515
199, -17.86, -29.33, -22.04, -23.78, -179069.47, -178743.50, -179139.03, -186087.97, 0.000, 0.000, 0.000, 21:07:12.515, 1541902032515
200, -18.02, -28.99, -22.04, -23.74, -179047.39, -178721.55, -179116.38, -186088.41, 0.000, 0.000, 0.000, 21:07:12.515, 1541902032515
201, -17.90, -28.97, -21.88, -23.89, -179113.78, -178784.77, -179182.58, -186091.66, 0.000, 0.000, 0.000, 21:07:12.516, 1541902032516
202, -17.66, -28.77, -21.86, -23.96, -179155.73, -178822.75, -179224.42, -186092.28, 0.000, 0.000, 0.000, 21:07:12.516, 1541902032516
203, -17.66, -28.99, -21.88, -23.87, -179107.36, -178776.59, -179176.25, -186089.83, 0.000, 0.000, 0.000, 21:07:12.516, 1541902032516
