%OpenBCI Raw EEG Data
%Number of channels = 8
%Sample Rate = 250.0 Hz
%First Column = SampleIndex
%Last Column = Timestamp 
%Other Columns = EEG data in microvolts followed by Accel Data (in G) interleaved with Aux Data
1, -17.95, -26.67, -21.59, -20.76, -28.32, -25.97, -17.03, -19.65, 0.032, 0.966, 0.276, 20:49:22.628, 1541900962628
2, -17.86, -26.80, -21.59, -20.88, -28.30, -26.06, -16.90, -19.96, 0.000, 0.000, 0.000, 20:49:22.628, 1541900962628
3, -17.97, -26.82, -21.50, -21.12, -28.59, -26.40, -16.96, -19.69, 0.000, 0.000, 0.000, 20:49:22.628, 1541900962628
4, -17.84, -26.64, -21.26, -20.85, -28.63, -26.29, -17.12, -19.58, 0.000, 0.000, 0.000, 20:49:22.629, 1541900962629
5, -17.79, -26.55, -21.39, -20.90, -28.16, -26.02, -17.05, -19.62, 0.000, 0.000, 0.000, 20:49:22.629, 1541900962629
6, -17.93, -26.58, -21.26, -21.01, -28.19, -25.91, -16.99, -19.89, 0.000, 0.000, 0.000, 20:49:22.629, 1541900962629
7, -18.24, -26.84, -21.32, -20.85, -28.43, -26.22, -16.85, -19.78, 0.000, 0.000, 0.000, 20:49:22.629, 1541900962629
8, -18.24, -26.76, -21.39, -20.94, -28.34, -26.04, -16.81, -19.87, 0.026, 0.960, 0.276, 20:49:22.629, 1541900962629
9, -17.93, -26.73, -21.44, -21.06, -28.52, -26.20, -17.03, -20.09, 0.000, 0.000, 0.000, 20:49:22.629, 1541900962629
10, -17.75, -26.58, -21.44, -21.14, -28.34, -26.13, -17.14, -20.05, 0.000, 0.000, 0.000, 20:49:22.629, 1541900962629
11, -17.88, -26.78, -21.61, -21.01, -28.52, -25.95, -17.19, -20.09, 0.000, 0.000, 0.000, 20:49:22.629, 1541900962629
12, -17.95, -26.82, -21.64, -20.90, -28.27, -25.97, -16.81, -20.05, 0.000, 0.000, 0.000, 20:49:22.629, 1541900962629
13, -17.95, -26.73, -21.50, -20.88, -28.39, -25.88, -16.92, -19.83, 0.000, 0.000, 0.000, 20:49:22.629, 1541900962629
14, -17.93, -26.53, -21.39, -20.81, -28.34, -26.04, -17.05, -19.83, 0.000, 0.000, 0.000, 20:49:22.629, 1541900962629
15, -17.97, -26.62, -21.50, -20.94, -28.52, -26.17, -17.12, -19.87, 0.000, 0.000, 0.000, 20:49:22.629, 1541900962629
16, -17.95, -26.58, -21.41, -20.92, -28.21, -26.31, -17.19, -19.94, 0.000, 0.000, 0.000, 20:49:22.629, 1541900962629
17, -18.22, -26.58, -21.41, -20.85, -28.34, -26.20, -17.08, -19.92, 0.026, 0.960, 0.276, 20:49:22.629, 1541900962629
18, -18.15, -26.64, -21.46, -20.92, -28.36, -26.15, -16.85, -19.87, 0.000, 0.000, 0.000, 20:49:22.629, 1541900962629
19, -18.10, -26.62, -21.52, -20.94, -28.43, -26.29, -16.85, -20.00, 0.000, 0.000, 0.000, 20:49:22.629, 1541900962629
20, -18.04, -26.46, -21.59, -20.99, -28.45, -26.29, -16.99, -20.05, 0.000, 0.000, 0.000, 20:49:22.629, 1541900962629
21, -17.88, -26.67, -21.35, -20.88, -28.16, -26.08, -16.92, -19.89, 0.000, 0.000, 0.000, 20:49:22.630, 1541900962630
22, -17.70, -26.80, -21.39, -20.81, -28.34, -25.91, -16.88, -19.76, 0.000, 0.000, 0.000, 20:49:22.630, 1541900962630
23, -18.06, -26.73, -21.50, -21.08, -28.41, -26.02, -16.90, -19.85, 0.000, 0.000, 0.000, 20:49:22.630, 1541900962630
24, -18.10, -26.84, -21.26, -20.99, -28.27, -25.91, -16.92, -19.98, 0.000, 0.000, 0.000, 20:49:22.630, 1541900962630
25, -17.79, -26.80, -21.61, -20.97, -28.36, -26.02, -16.83, -20.09, 0.000, 0.000, 0.000, 20:49:22.630, 1541900962630
26, -17.86, -26.60, -21.59, -20.88, -28.36, -26.17, -16.74, -20.21, 0.000, 0.000, 0.000, 20:49:22.630, 1541900962630
27, -18.15, -26.71, -21.44, -20.94, -28.19, -26.24, -17.01, -19.98, 0.028, 0.960, 0.272, 20:49:22.630, 1541900962630
28, -17.93, -26.87, -21.37, -21.08, -28.30, -26.08, -17.14, -19.92, 0.000, 0.000, 0.000, 20:49:22.630, 1541900962630
29, -17.88, -27.00, -21.55, -21.12, -28.34, -26.20, -16.85, -19.76, 0.000, 0.000, 0.000, 20:49:22.630, 1541900962630
30, -17.90, -26.84, -21.50, -21.12, -28.27, -26.24, -16.96, -19.74, 0.000, 0.000, 0.000, 20:49:22.630, 1541900962630
31, -17.95, -26.80, -21.23, -20.88, -28.25, -26.24, -17.03, -19.98, 0.000, 0.000, 0.000, 20:49:22.630, 1541900962630
32, -17.99, -26.64, -21.37, -20.99, -28.41, -25.95, -16.99, -19.71, 0.000, 0.000, 0.000, 20:49:22.630, 1541900962630
33, -17.77, -26.64, -21.70, -21.03, -28.19, -26.02, -16.85, -19.78, 0.000, 0.000, 0.000, 20:49:22.630, 1541900962630
34, -17.90, -26.55, -21.73, -20.76, -28.41, -26.31, -16.72, -20.00, 0.000, 0.000, 0.000, 20:49:22.630, 1541900962630
35, -17.97, -26.78, -21.61, -20.81, -28.16, -26.31, -16.90, -20.05, 0.000, 0.000, 0.000, 20:49:22.630, 1541900962630
36, -17.68, -26.78, -21.39, -20.83, -28.23, -26.26, -16.96, -19.96, 0.000, 0.000, 0.000, 20:49:22.631, 1541900962631
37, -17.70, -26.78, -21.32, -20.76, -28.19, -25.95, -17.12, -20.14, 0.034, 0.962, 0.276, 20:49:22.631, 1541900962631
38, -17.79, -26.87, -21.44, -20.76, -28.30, -26.08, -17.01, -20.03, 0.000, 0.000, 0.000, 20:49:22.631, 1541900962631
39, -18.08, -26.93, -21.77, -20.65, -28.32, -26.11, -16.90, -20.09, 0.000, 0.000, 0.000, 20:49:22.631, 1541900962631
40, -18.04, -26.84, -21.61, -20.83, -28.19, -25.95, -16.90, -19.94, 0.000, 0.000, 0.000, 20:49:22.631, 1541900962631
41, -17.90, -26.46, -21.84, -20.76, -28.14, -25.95, -17.01, -19.98, 0.000, 0.000, 0.000, 20:49:22.631, 1541900962631
42, -17.99, -26.58, -21.82, -20.61, -28.32, -26.42, -17.05, -20.03, 0.000, 0.000, 0.000, 20:49:22.631, 1541900962631
43, -18.02, -26.69, -21.52, -20.81, -28.21, -26.26, -16.85, -20.07, 0.000, 0.000, 0.000, 20:49:22.631, 1541900962631
44, -17.99, -26.51, -21.28, -20.92, -28.21, -26.24, -17.01, -19.87, 0.000, 0.000, 0.000, 20:49:22.631, 1541900962631
45, -17.93, -26.69, -21.26, -20.74, -28.48, -26.31, -16.94, -19.80, 0.000, 0.000, 0.000, 20:49:22.631, 1541900962631
46, -17.86, -26.64, -21.26, -20.99, -28.54, -26.17, -16.96, -19.65, 0.000, 0.000, 0.000, 20:49:22.631, 1541900962631
47, -17.86, -26.44, -21.48, -20.85, -28.30, -26.06, -16.96, -19.83, 0.032, 0.964, 0.272, 20:49:22.631, 1541900962631
48, -17.86, -26.53, -21.46, -20.94, -28.19, -26.06, -16.67, -20.09, 0.000, 0.000, 0.000, 20:49:22.631, 1541900962631
49, -17.68, -26.67, -21.37, -21.06, -28.41, -26.40, -16.70, -20.09, 0.000, 0.000, 0.000, 20:49:22.631, 1541900962631
50, -17.61, -26.84, -21.64, -20.76, -28.45, -26.20, -16.83, -19.94, 0.000, 0.000, 0.000, 20:49:22.631, 1541900962631
51, -17.81, -26.87, -21.55, -20.70, -28.36, -26.24, -16.67, -19.87, 0.000, 0.000, 0.000, 20:49:22.631, 1541900962631
52, -18.13, -26.80, -21.41, -20.65, -28.43, -26.29, -16.85, -19.96, 0.000, 0.000, 0.000, 20:49:22.631, 1541900962631
53, -18.08, -26.73, -21.50, -20.99, -28.34, -26.20, -17.19, -19.85, 0.000, 0.000, 0.000, 20:49:22.632, 1541900962632
54, -17.93, -26.82, -21.66, -20.88, -28.23, -26.22, -17.01, -19.78, 0.000, 0.000, 0.000, 20:49:22.632, 1541900962632
55, -17.90, -26.73, -21.55, -20.70, -28.30, -26.15, -16.72, -19.78, 0.000, 0.000, 0.000, 20:49:22.632, 1541900962632
56, -17.86, -26.76, -21.61, -21.17, -28.21, -26.24, -16.85, -20.00, 0.000, 0.000, 0.000, 20:49:22.632, 1541900962632
57, -17.93, -26.82, -21.82, -21.12, -28.23, -26.02, -16.90, -19.80, 0.030, 0.970, 0.274, 20:49:22.632, 1541900962632
58, -17.86, -26.76, -21.48, -20.76, -28.19, -25.93, -16.79, -20.12, 0.000, 0.000, 0.000, 20:49:22.632, 1541900962632
59, -17.93, -26.82, -21.35, -20.83, -28.30, -26.04, -16.72, -20.05, 0.000, 0.000, 0.000, 20:49:22.632, 1541900962632
60, -18.19, -26.76, -21.50, -20.68, -28.30, -25.97, -16.92, -19.74, 0.000, 0.000, 0.000, 20:49:22.632, 1541900962632
61, -18.08, -26.69, -21.55, -20.81, -28.14, -26.13, -17.12, -19.92, 0.000, 0.000, 0.000, 20:49:22.632, 1541900962632
62, -17.84, -26.73, -21.59, -20.72, -28.23, -25.97, -16.99, -19.69, 0.000, 0.000, 0.000, 20:49:22.632, 1541900962632
63, -18.04, -26.93, -21.44, -20.79, -28.36, -26.06, -16.70, -19.74, 0.000, 0.000, 0.000, 20:49:22.632, 1541900962632
64, -18.04, -26.80, -21.46, -20.85, -28.43, -26.06, -16.90, -19.92, 0.000, 0.000, 0.000, 20:49:22.632, 1541900962632
65, -18.17, -26.80, -21.44, -20.65, -28.10, -25.91, -16.83, -20.03, 0.000, 0.000, 0.000, 20:49:22.632, 1541900962632
66, -17.90, -26.73, -21.35, -20.70, -28.12, -26.13, -16.70, -19.76, 0.030, 0.972, 0.278, 20:49:22.632, 1541900962632
67, -18.06, -26.80, -21.37, -20.83, -28.36, -26.24, -16.83, -19.71, 0.000, 0.000, 0.000, 20:49:22.632, 1541900962632
68, -18.13, -26.64, -21.37, -20.61, -28.14, -26.24, -16.92, -19.60, 0.000, 0.000, 0.000, 20:49:22.633, 1541900962633
69, -18.02, -26.64, -21.28, -20.74, -28.12, -25.97, -17.03, -19.58, 0.000, 0.000, 0.000, 20:49:22.634, 1541900962634
70, -17.86, -26.58, -21.28, -20.70, -28.30, -25.95, -16.90, -19.71, 0.000, 0.000, 0.000, 20:49:22.634, 1541900962634
71, -17.90, -26.76, -21.37, -20.70, -28.36, -26.02, -16.90, -19.87, 0.000, 0.000, 0.000, 20:49:22.634, 1541900962634
72, -18.06, -26.80, -21.57, -20.85, -28.43, -26.24, -16.81, -19.92, 0.000, 0.000, 0.000, 20:49:22.634, 1541900962634
73, -18.08, -26.64, -21.48, -20.70, -28.59, -26.11, -16.85, -19.92, 0.000, 0.000, 0.000, 20:49:22.634, 1541900962634
74, -18.17, -26.78, -21.35, -20.92, -28.59, -25.95, -17.12, -19.96, 0.000, 0.000, 0.000, 20:49:22.634, 1541900962634
75, -18.04, -26.87, -21.37, -21.08, -28.41, -26.13, -17.14, -20.05, 0.000, 0.000, 0.000, 20:49:22.634, 1541900962634
76, -17.81, -26.91, -21.57, -20.88, -28.21, -26.11, -17.01, -19.92, 0.028, 0.966, 0.278, 20:49:22.634, 1541900962634
77, -18.19, -26.91, -21.44, -21.01, -28.19, -26.13, -16.76, -19.92, 0.000, 0.000, 0.000, 20:49:22.634, 1541900962634
78, -18.33, -26.80, -21.55, -20.70, -28.30, -26.20, -16.85, -19.58, 0.000, 0.000, 0.000, 20:49:22.634, 1541900962634
79, -18.28, -26.80, -21.37, -20.61, -28.32, -26.20, -16.88, -19.71, 0.000, 0.000, 0.000, 20:49:22.634, 1541900962634
80, -18.04, -26.76, -21.52, -20.83, -28.30, -26.17, -17.03, -19.83, 0.000, 0.000, 0.000, 20:49:22.634, 1541900962634
81, -18.02, -26.64, -21.55, -20.76, -28.12, -25.95, -16.83, -19.71, 0.000, 0.000, 0.000, 20:49:22.634, 1541900962634
82, -17.81, -26.69, -21.28, -20.97, -28.52, -25.84, -16.81, -19.85, 0.000, 0.000, 0.000, 20:49:22.634, 1541900962634
83, -18.04, -26.69, -21.37, -20.99, -28.43, -26.13, -17.01, -19.67, 0.000, 0.000, 0.000, 20:49:22.635, 1541900962635
84, -18.13, -26.91, -21.37, -20.79, -28.54, -26.15, -17.01, -19.80, 0.000, 0.000, 0.000, 20:49:22.635, 1541900962635
85, -17.90, -26.73, -21.28, -20.83, -28.50, -26.31, -17.01, -19.87, 0.000, 0.000, 0.000, 20:49:22.635, 1541900962635
86, -18.22, -26.73, -21.39, -20.83, -28.59, -26.22, -16.85, -19.92, 0.030, 0.966, 0.282, 20:49:22.635, 1541900962635
87, -18.10, -26.91, -21.55, -20.90, -28.39, -26.26, -16.70, -19.96, 0.000, 0.000, 0.000, 20:49:22.635, 1541900962635
88, -17.99, -26.89, -21.57, -20.88, -28.36, -25.88, -16.70, -19.98, 0.000, 0.000, 0.000, 20:49:22.635, 1541900962635
89, -18.04, -26.84, -21.50, -21.06, -28.45, -25.79, -16.79, -19.87, 0.000, 0.000, 0.000, 20:49:22.635, 1541900962635
90, -18.15, -26.84, -21.48, -21.03, -28.27, -26.04, -16.79, -19.76, 0.000, 0.000, 0.000, 20:49:22.635, 1541900962635
91, -18.08, -26.73, -21.64, -20.83, -28.10, -26.04, -17.03, -19.98, 0.000, 0.000, 0.000, 20:49:22.635, 1541900962635
92, -18.08, -26.84, -21.55, -20.76, -28.21, -26.08, -16.92, -20.00, 0.000, 0.000, 0.000, 20:49:22.635, 1541900962635
93, -18.24, -26.69, -21.52, -20.97, -28.39, -26.06, -17.14, -19.83, 0.000, 0.000, 0.000, 20:49:22.635, 1541900962635
94, -18.24, -26.64, -21.50, -20.83, -28.36, -25.82, -17.12, -19.71, 0.000, 0.000, 0.000, 20:49:22.635, 1541900962635
95, -17.95, -26.71, -21.44, -20.74, -28.41, -25.91, -16.70, -19.69, 0.000, 0.000, 0.000, 20:49:22.636, 1541900962636
96, -18.13, -26.78, -21.32, -20.97, -28.36, -26.35, -16.90, -19.80, 0.030, 0.966, 0.284, 20:49:22.636, 1541900962636
97, -18.13, -26.67, -21.37, -21.08, -28.30, -26.15, -16.94, -19.94, 0.000, 0.000, 0.000, 20:49:22.636, 1541900962636
98, -17.95, -26.62, -21.37, -20.99, -28.14, -26.24, -16.96, -20.03, 0.000, 0.000, 0.000, 20:49:22.636, 1541900962636
99, -18.15, -26.58, -21.50, -20.76, -28.23, -26.22, -16.90, -19.85, 0.000, 0.000, 0.000, 20:49:22.636, 1541900962636
100, -18.02, -26.89, -21.48, -20.83, -28.50, -26.24, -16.96, -19.58, 0.000, 0.000, 0.000, 20:49:22.638, 1541900962638
101, -17.68, -26.71, -21.73, -20.94, -28.36, -26.22, -17.12, -19.71, 0.000, 0.000, 0.000, 20:49:22.638, 1541900962638
102, -17.97, -26.53, -21.44, -20.83, -28.32, -26.35, -17.14, -19.76, 0.000, 0.000, 0.000, 20:49:22.638, 1541900962638
103, -18.13, -26.82, -21.30, -21.14, -28.34, -26.13, -16.96, -19.89, 0.000, 0.000, 0.000, 20:49:22.639, 1541900962639
104, -17.81, -26.62, -21.37, -21.28, -28.23, -25.84, -16.90, -19.69, 0.000, 0.000, 0.000, 20:49:22.639, 1541900962639
105, -17.77, -26.76, -21.39, -21.10, -28.14, -26.04, -16.90, -19.76, 0.000, 0.000, 0.000, 20:49:22.639, 1541900962639
106, -18.02, -26.71, -21.46, -20.92, -28.27, -26.15, -16.79, -19.80, 0.028, 0.964, 0.282, 20:49:22.639, 1541900962639
107, -17.90, -26.71, -21.75, -20.81, -28.30, -26.24, -17.03, -19.78, 0.000, 0.000, 0.000, 20:49:22.639, 1541900962639
108, -17.86, -26.53, -21.44, -20.88, -28.43, -26.04, -16.83, -19.92, 0.000, 0.000, 0.000, 20:49:22.640, 1541900962640
109, -17.72, -26.55, -21.44, -20.76, -28.59, -26.04, -16.56, -20.09, 0.000, 0.000, 0.000, 20:49:22.640, 1541900962640
110, -17.90, -26.80, -21.75, -20.52, -28.48, -26.08, -16.70, -19.74, 0.000, 0.000, 0.000, 20:49:22.640, 1541900962640
111, -17.93, -26.93, -21.59, -20.72, -28.16, -26.08, -16.92, -19.65, 0.000, 0.000, 0.000, 20:49:22.641, 1541900962641
112, -18.04, -27.02, -21.55, -21.01, -28.14, -26.00, -17.01, -20.03, 0.000, 0.000, 0.000, 20:49:22.642, 1541900962642
113, -18.06, -26.76, -21.21, -20.83, -28.30, -25.97, -16.74, -20.07, 0.000, 0.000, 0.000, 20:49:22.642, 1541900962642
114, -17.97, -26.69, -20.99, -20.72, -28.34, -26.08, -16.85, -20.00, 0.000, 0.000, 0.000, 20:49:22.642, 1541900962642
115, -17.90, -26.82, -21.32, -20.85, -28.32, -26.20, -17.03, -19.92, 0.024, 0.962, 0.278, 20:49:22.642, 1541900962642
116, -17.93, -26.76, -21.48, -20.76, -28.36, -25.97, -17.05, -19.76, 0.000, 0.000, 0.000, 20:49:22.642, 1541900962642
117, -17.86, -26.73, -21.50, -20.76, -28.52, -26.00, -16.96, -19.74, 0.000, 0.000, 0.000, 20:49:22.642, 1541900962642
118, -17.84, -26.76, -21.44, -21.08, -28.41, -25.97, -16.94, -19.69, 0.000, 0.000, 0.000, 20:49:22.642, 1541900962642
119, -17.93, -26.80, -21.66, -20.85, -28.32, -26.20, -16.72, -19.78, 0.000, 0.000, 0.000, 20:49:22.642, 1541900962642
120, -17.93, -26.76, -21.77, -20.92, -27.81, -26.20, -16.67, -19.87, 0.000, 0.000, 0.000, 20:49:22.643, 1541900962643
121, -17.93, -26.58, -21.59, -20.81, -28.07, -26.31, -16.85, -19.71, 0.000, 0.000, 0.000, 20:49:23.109, 1541900963109
122, -17.90, -26.67, -21.61, -21.08, -28.36, -26.29, -17.12, -19.78, 0.000, 0.000, 0.000, 20:49:23.109, 1541900963109
123, -18.13, -26.78, -21.48, -20.94, -28.43, -26.24, -16.88, -19.83, 0.000, 0.000, 0.000, 20:49:23.109, 1541900963109
124, -18.24, -26.58, -21.52, -20.85, -28.25, -26.11, -16.92, -20.00, 0.000, 0.000, 0.000, 20:49:23.109, 1541900963109
125, -18.13, -26.73, -21.61, -20.92, -28.36, -25.95, -17.03, -19.87, 0.028, 0.966, 0.276, 20:49:23.109, 1541900963109
126, -18.15, -26.73, -21.66, -20.90, -28.45, -26.06, -16.90, -20.03, 0.000, 0.000, 0.000, 20:49:23.110, 1541900963110
127, -18.04, -26.76, -21.26, -21.03, -28.32, -26.08, -16.92, -19.96, 0.000, 0.000, 0.000, 20:49:23.110, 1541900963110
128, -18.08, -26.76, -21.37, -21.06, -28.36, -26.06, -16.90, -19.67, 0.000, 0.000, 0.000, 20:49:23.110, 1541900963110
129, -18.08, -26.73, -21.84, -21.03, -28.41, -26.24, -17.12, -19.67, 0.000, 0.000, 0.000, 20:49:23.110, 1541900963110
130, -18.10, -26.67, -21.73, -20.99, -28.57, -26.20, -16.81, -19.87, 0.000, 0.000, 0.000, 20:49:23.110, 1541900963110
131, -18.13, -26.73, -21.28, -20.92, -28.52, -26.26, -16.76, -19.96, 0.000, 0.000, 0.000, 20:49:23.110, 1541900963110
132, -18.15, -26.71, -21.28, -20.94, -28.21, -26.22, -17.01, -19.94, 0.000, 0.000, 0.000, 20:49:23.110, 1541900963110
133, -18.22, -26.51, -21.35, -20.88, -28.25, -25.95, -16.85, -19.87, 0.000, 0.000, 0.000, 20:49:23.110, 1541900963110
134, -18.02, -26.58, -21.39, -20.70, -28.19, -26.17, -16.85, -19.96, 0.000, 0.000, 0.000, 20:49:23.110, 1541900963110
135, -17.86, -26.64, -21.32, -20.76, -28.43, -26.20, -17.01, -19.92, 0.024, 0.966, 0.278, 20:49:23.110, 1541900963110
136, -17.81, -26.73, -21.26, -20.81, -28.30, -25.91, -17.08, -19.85, 0.000, 0.000, 0.000, 20:49:23.110, 1541900963110
137, -17.97, -26.78, -21.23, -20.83, -28.23, -26.02, -17.05, -19.71, 0.000, 0.000, 0.000, 20:49:23.111, 1541900963111
138, -18.08, -26.64, -21.37, -20.90, -28.21, -26.35, -16.90, -19.85, 0.000, 0.000, 0.000, 20:49:23.111, 1541900963111
139, -18.02, -26.46, -21.55, -20.72, -28.25, -26.13, -16.85, -20.14, 0.000, 0.000, 0.000, 20:49:23.111, 1541900963111
140, -18.02, -26.53, -21.55, -20.76, -28.21, -26.24, -16.88, -20.32, 0.000, 0.000, 0.000, 20:49:23.111, 1541900963111
141, -18.02, -26.69, -21.55, -20.92, -28.25, -26.11, -16.96, -19.98, 0.000, 0.000, 0.000, 20:49:23.111, 1541900963111
142, -18.28, -26.62, -21.28, -20.83, -28.36, -26.04, -17.14, -19.92, 0.000, 0.000, 0.000, 20:49:23.111, 1541900963111
143, -18.19, -26.62, -21.59, -20.99, -28.25, -26.08, -17.03, -19.83, 0.000, 0.000, 0.000, 20:49:23.111, 1541900963111
144, -18.35, -26.62, -21.44, -20.92, -28.25, -25.97, -16.92, -19.94, 0.000, 0.000, 0.000, 20:49:23.111, 1541900963111
145, -17.93, -26.69, -21.50, -20.92, -28.45, -26.24, -16.92, -20.00, 0.032, 0.968, 0.278, 20:49:23.111, 1541900963111
146, -17.79, -26.73, -21.59, -20.76, -28.65, -26.20, -16.72, -19.69, 0.000, 0.000, 0.000, 20:49:23.111, 1541900963111
147, -18.10, -26.84, -21.35, -20.34, -28.41, -26.15, -16.76, -20.05, 0.000, 0.000, 0.000, 20:49:23.111, 1541900963111
148, -18.10, -26.67, -21.41, -20.88, -28.21, -26.17, -16.85, -19.92, 0.000, 0.000, 0.000, 20:49:23.111, 1541900963111
149, -18.04, -26.78, -21.30, -21.06, -28.25, -26.26, -16.90, -19.65, 0.000, 0.000, 0.000, 20:49:23.112, 1541900963112
150, -17.93, -26.69, -21.39, -20.79, -28.48, -26.22, -17.03, -19.71, 0.000, 0.000, 0.000, 20:49:23.112, 1541900963112
151, -18.02, -26.69, -21.46, -20.90, -28.21, -26.20, -16.83, -19.87, 0.000, 0.000, 0.000, 20:49:23.112, 1541900963112
152, -18.31, -26.76, -21.55, -20.83, -28.25, -26.15, -16.74, -19.92, 0.000, 0.000, 0.000, 20:49:23.112, 1541900963112
153, -17.93, -27.11, -21.32, -20.59, -28.39, -26.29, -16.65, -19.89, 0.000, 0.000, 0.000, 20:49:23.112, 1541900963112
154, -18.04, -26.80, -21.50, -20.74, -28.43, -26.46, -16.58, -19.87, 0.030, 0.964, 0.282, 20:49:23.112, 1541900963112
155, -17.99, -26.76, -21.55, -21.06, -28.59, -26.35, -16.63, -19.78, 0.000, 0.000, 0.000, 20:49:23.112, 1541900963112
156, -17.90, -26.55, -21.44, -20.94, -28.36, -26.33, -16.67, -19.71, 0.000, 0.000, 0.000, 20:49:23.112, 1541900963112
157, -17.81, -26.53, -21.21, -20.70, -28.14, -26.29, -17.03, -20.07, 0.000, 0.000, 0.000, 20:49:23.112, 1541900963112
158, -17.68, -26.76, -21.55, -20.92, -28.10, -26.17, -17.08, -20.18, 0.000, 0.000, 0.000, 20:49:23.112, 1541900963112
159, -17.97, -26.80, -21.50, -20.94, -28.30, -26.40, -16.79, -19.69, 0.000, 0.000, 0.000, 20:49:23.112, 1541900963112
160, -18.04, -26.62, -21.50, -20.81, -28.72, -26.51, -16.76, -19.65, 0.000, 0.000, 0.000, 20:49:23.113, 1541900963113
161, -17.88, -26.64, -21.50, -20.88, -28.59, -26.29, -16.65, -19.98, 0.000, 0.000, 0.000, 20:49:23.113, 1541900963113
162, -17.81, -26.69, -21.39, -20.74, -28.32, -26.08, -16.83, -20.16, 0.000, 0.000, 0.000, 20:49:23.113, 1541900963113
163, -17.68, -26.84, -21.35, -20.76, -28.30, -26.20, -17.03, -19.87, 0.000, 0.000, 0.000, 20:49:23.113, 1541900963113
164, -17.68, -26.82, -21.48, -20.99, -28.43, -26.06, -16.74, -19.80, 0.030, 0.954, 0.286, 20:49:23.113, 1541900963113
165, -18.17, -26.80, -21.73, -21.17, -28.39, -26.08, -16.76, -19.92, 0.000, 0.000, 0.000, 20:49:23.113, 1541900963113
166, -18.04, -26.91, -21.66, -20.99, -28.34, -26.24, -16.90, -19.87, 0.000, 0.000, 0.000, 20:49:23.113, 1541900963113
167, -17.93, -26.80, -21.70, -20.68, -28.54, -26.24, -17.19, -19.71, 0.000, 0.000, 0.000, 20:49:23.113, 1541900963113
168, -17.97, -26.96, -21.50, -20.74, -28.32, -26.20, -16.74, -19.78, 0.000, 0.000, 0.000, 20:49:23.113, 1541900963113
169, -17.93, -26.87, -21.32, -20.85, -28.39, -26.24, -16.79, -19.87, 0.000, 0.000, 0.000, 20:49:23.113, 1541900963113
170, -17.97, -26.51, -21.23, -20.94, -28.19, -26.06, -16.90, -19.94, 0.000, 0.000, 0.000, 20:49:23.113, 1541900963113
171, -17.93, -26.42, -21.21, -20.59, -28.07, -26.17, -16.67, -19.78, 0.000, 0.000, 0.000, 20:49:23.114, 1541900963114
172, -17.70, -26.80, -21.26, -20.92, -28.14, -26.13, -16.96, -19.76, 0.000, 0.000, 0.000, 20:49:23.114, 1541900963114
173, -18.04, -26.78, -21.55, -21.08, -28.21, -26.17, -17.08, -19.92, 0.000, 0.000, 0.000, 20:49:23.114, 1541900963114
174, -18.02, -26.73, -21.44, -20.81, -28.25, -26.24, -16.99, -19.51, 0.032, 0.958, 0.286, 20:49:23.114, 1541900963114
175, -18.08, -26.58, -21.44, -20.74, -28.43, -26.29, -16.83, -19.54, 0.000, 0.000, 0.000, 20:49:23.114, 1541900963114
176, -18.08, -26.53, -21.37, -20.92, -28.50, -26.06, -16.85, -19.76, 0.000, 0.000, 0.000, 20:49:23.114, 1541900963114
177, -18.04, -26.51, -21.46, -20.74, -28.50, -26.11, -16.96, -19.71, 0.000, 0.000, 0.000, 20:49:23.114, 1541900963114
178, -17.97, -26.64, -21.61, -20.65, -28.54, -26.24, -16.81, -19.74, 0.000, 0.000, 0.000, 20:49:23.114, 1541900963114
179, -17.95, -26.78, -21.41, -20.85, -28.21, -26.35, -16.56, -19.71, 0.000, 0.000, 0.000, 20:49:23.114, 1541900963114
180, -18.13, -26.55, -21.23, -20.90, -28.03, -26.31, -16.74, -19.85, 0.000, 0.000, 0.000, 20:49:23.114, 1541900963114
181, -18.19, -26.60, -21.41, -20.92, -28.30, -26.06, -16.90, -19.76, 0.000, 0.000, 0.000, 20:49:23.114, 1541900963114
182, -18.26, -26.82, -21.50, -21.06, -28.30, -25.95, -16.88, -19.80, 0.000, 0.000, 0.000, 20:49:23.114, 1541900963114
183, -18.04, -26.76, -21.55, -20.76, -28.41, -26.04, -16.79, -20.00, 0.000, 0.000, 0.000, 20:49:23.114, 1541900963114
184, -18.08, -26.80, -21.50, -20.61, -28.52, -26.20, -16.99, -19.71, 0.028, 0.966, 0.284, 20:49:23.115, 1541900963115
185, -17.81, -26.80, -21.37, -20.88, -28.30, -26.13, -16.76, -19.58, 0.000, 0.000, 0.000, 20:49:23.115, 1541900963115
186, -18.02, -26.78, -21.44, -20.83, -28.27, -26.17, -16.96, -19.76, 0.000, 0.000, 0.000, 20:49:23.115, 1541900963115
187, -18.04, -26.80, -21.55, -20.94, -28.43, -25.79, -17.08, -19.92, 0.000, 0.000, 0.000, 20:49:23.115, 1541900963115
188, -18.08, -26.53, -21.59, -20.99, -28.36, -25.97, -17.19, -19.94, 0.000, 0.000, 0.000, 20:49:23.115, 1541900963115
189, -17.97, -26.73, -21.59, -20.88, -28.48, -26.08, -17.01, -19.96, 0.000, 0.000, 0.000, 20:49:23.115, 1541900963115
190, -17.81, -26.84, -21.50, -20.72, -28.36, -26.24, -16.65, -19.83, 0.000, 0.000, 0.000, 20:49:23.115, 1541900963115
191, -17.86, -26.89, -21.57, -21.03, -28.36, -26.02, -16.83, -19.87, 0.000, 0.000, 0.000, 20:49:23.115, 1541900963115
192, -17.95, -26.69, -21.39, -21.12, -28.34, -25.95, -17.14, -19.94, 0.000, 0.000, 0.000, 20:49:23.115, 1541900963115
193, -17.93, -26.69, -21.32, -20.99, -28.43, -26.00, -17.01, -19.96, 0.000, 0.000, 0.000, 20:49:23.115, 1541900963115
194, -17.79, -26.87, -21.32, -20.76, -28.36, -26.13, -16.90, -19.83, 0.026, 0.964, 0.286, 20:49:23.115, 1541900963115
195, -17.93, -26.69, -21.44, -20.90, -28.39, -26.26, -17.03, -19.74, 0.000, 0.000, 0.000, 20:49:23.115, 1541900963115
196, -18.15, -26.69, -21.46, -21.01, -28.25, -26.13, -17.03, -19.92, 0.000, 0.000, 0.000, 20:49:23.115, 1541900963115
197, -18.17, -26.87, -21.59, -20.99, -28.10, -26.20, -16.92, -19.98, 0.000, 0.000, 0.000, 20:49:23.115, 1541900963115
198, -18.13, -26.80, -21.52, -20.74, -28.52, -26.24, -16.88, -20.03, 0.000, 0.000, 0.000, 20:49:23.116, 1541900963116
199, -18.02, -26.69, -21.48, -20.90, -28.48, -26.04, -17.03, -19.98, 0.000, 0.000, 0.000, 20:49:23.116, 1541900963116
200, -17.88, -26.44, -21.48, -20.83, -28.59, -26.02, -17.01, -19.78, 0.000, 0.000, 0.000, 20:49:23.116, 1541900963116
201, -17.93, -26.62, -21.19, -20.99, -28.50, -26.44, -16.81, -19.83, 0.000, 0.000, 0.000, 20:49:23.116, 1541900963116
202, -18.15, -26.67, -21.32, -21.12, -28.41, -26.20, -16.85, -19.80, 0.000, 0.000, 0.000, 20:49:23.116, 1541900963116
203, -18.15, -26.64, -21.50, -20.94, -28.23, -25.97, -17.03, -19.92, 0.024, 0.960, 0.286, 20:49:23.116, 1541900963116
204, -17.90, -26.71, -21.61, -21.01, -28.12, -25.97, -16.96, -19.94, 0.000, 0.000, 0.000, 20:49:23.116, 1541900963116
205, -17.90, -26.73, -21.66, -20.81, -28.27, -26.29, -16.74, -19.94, 0.000, 0.000, 0.000, 20:49:23.116, 1541900963116
206, -18.13, -26.64, -21.50, -20.81, -28.45, -26.24, -16.81, -20.03, 0.000, 0.000, 0.000, 20:49:23.116, 1541900963116
207, -17.86, -26.49, -21.39, -20.88, -28.48, -26.24, -16.85, -19.85, 0.000, 0.000, 0.000, 20:49:23.116, 1541900963116
208, -17.75, -26.53, -21.46, -20.76, -28.27, -25.97, -17.01, -19.87, 0.000, 0.000, 0.000, 20:49:23.117, 1541900963117
209, -17.86, -26.62, -21.61, -20.76, -28.39, -25.97, -16.92, -19.80, 0.000, 0.000, 0.000, 20:49:23.117, 1541900963117
210, -17.93, -26.62, -21.50, -20.99, -28.45, -26.11, -17.08, -19.83, 0.000, 0.000, 0.000, 20:49:23.117, 1541900963117
211, -17.90, -26.87, -21.41, -20.88, -28.30, -26.11, -17.05, -19.80, 0.000, 0.000, 0.000, 20:49:23.117, 1541900963117
212, -17.93, -26.64, -21.37, -20.88, -28.39, -26.11, -17.26, -20.03, 0.000, 0.000, 0.000, 20:49:23.117, 1541900963117
213, -18.31, -26.89, -21.32, -20.99, -28.43, -26.20, -17.23, -20.05, 0.028, 0.960, 0.284, 20:49:23.117, 1541900963117
214, -18.10, -26.87, -21.28, -20.81, -28.25, -25.86, -17.01, -20.00, 0.000, 0.000, 0.000, 20:49:23.117, 1541900963117
215, -17.95, -26.91, -21.21, -20.70, -28.36, -26.13, -17.03, -19.76, 0.000, 0.000, 0.000, 20:49:23.118, 1541900963118
216, -18.06, -26.76, -21.37, -20.81, -28.41, -26.11, -16.79, -19.96, 0.000, 0.000, 0.000, 20:49:23.118, 1541900963118
217, -17.86, -26.73, -21.37, -20.83, -28.16, -26.02, -16.99, -19.76, 0.000, 0.000, 0.000, 20:49:23.118, 1541900963118
218, -17.99, -26.84, -21.48, -20.88, -28.30, -26.13, -16.90, -19.71, 0.000, 0.000, 0.000, 20:49:23.118, 1541900963118
219, -18.22, -26.78, -21.57, -21.10, -28.32, -26.17, -17.01, -19.76, 0.000, 0.000, 0.000, 20:49:23.118, 1541900963118
220, -17.97, -26.62, -21.39, -21.06, -28.32, -26.20, -16.90, -19.58, 0.000, 0.000, 0.000, 20:49:23.118, 1541900963118
221, -17.72, -26.51, -21.52, -21.08, -28.10, -26.24, -16.61, -19.71, 0.000, 0.000, 0.000, 20:49:23.118, 1541900963118
222, -17.79, -26.69, -21.55, -20.92, -28.32, -25.95, -16.74, -19.89, 0.000, 0.000, 0.000, 20:49:23.118, 1541900963118
223, -18.10, -26.69, -21.64, -20.68, -28.21, -26.06, -16.74, -19.83, 0.036, 0.960, 0.276, 20:49:23.118, 1541900963118
224, -18.33, -26.69, -21.50, -20.83, -28.32, -25.93, -16.96, -19.51, 0.000, 0.000, 0.000, 20:49:23.118, 1541900963118
225, -18.19, -26.76, -21.32, -20.99, -28.54, -26.02, -17.01, -19.78, 0.000, 0.000, 0.000, 20:49:23.118, 1541900963118
226, -18.15, -26.69, -21.23, -20.88, -28.41, -26.08, -16.81, -19.87, 0.000, 0.000, 0.000, 20:49:23.118, 1541900963118
227, -18.02, -26.80, -21.32, -20.65, -28.30, -26.02, -16.67, -19.67, 0.000, 0.000, 0.000, 20:49:23.118, 1541900963118
228, -18.02, -26.87, -21.70, -20.90, -28.30, -26.08, -16.90, -19.83, 0.000, 0.000, 0.000, 20:49:23.118, 1541900963118
229, -17.86, -26.71, -21.61, -21.08, -28.19, -26.20, -17.01, -19.69, 0.000, 0.000, 0.000, 20:49:23.119, 1541900963119
230, -17.90, -26.67, -21.37, -20.72, -28.10, -26.00, -16.85, -19.98, 0.000, 0.000, 0.000, 20:49:23.119, 1541900963119
231, -17.79, -26.58, -21.44, -20.72, -28.36, -26.24, -16.85, -19.94, 0.000, 0.000, 0.000, 20:49:23.119, 1541900963119
232, -17.97, -26.71, -21.21, -20.74, -28.52, -26.13, -17.10, -19.96, 0.000, 0.000, 0.000, 20:49:23.119, 1541900963119
233, -18.06, -26.91, -21.26, -20.88, -28.39, -26.08, -16.90, -19.83, 0.036, 0.962, 0.278, 20:49:23.119, 1541900963119
234, -17.70, -26.69, -21.66, -20.90, -28.30, -26.15, -16.94, -19.89, 0.000, 0.000, 0.000, 20:49:23.119, 1541900963119
235, -17.90, -26.42, -21.52, -20.94, -28.23, -26.38, -17.01, -19.65, 0.000, 0.000, 0.000, 20:49:23.119, 1541900963119
236, -17.86, -26.58, -21.48, -21.12, -28.32, -26.31, -16.63, -19.47, 0.000, 0.000, 0.000, 20:49:23.119, 1541900963119
237, -17.99, -26.67, -21.57, -20.92, -28.30, -26.29, -16.88, -19.71, 0.000, 0.000, 0.000, 20:49:23.119, 1541900963119
238, -17.93, -26.76, -21.52, -20.97, -28.21, -25.93, -16.90, -19.74, 0.000, 0.000, 0.000, 20:49:23.119, 1541900963119
239, -18.13, -26.87, -21.21, -20.97, -28.52, -25.95, -16.83, -19.78, 0.000, 0.000, 0.000, 20:49:23.119, 1541900963119
240, -18.02, -26.78, -21.50, -20.88, -28.59, -25.97, -16.99, -19.87, 0.000, 0.000, 0.000, 20:49:23.119, 1541900963119
241, -17.99, -26.60, -21.57, -20.74, -28.36, -26.20, -16.99, -20.03, 0.000, 0.000, 0.000, 20:49:23.590, 1541900963590
242, -17.90, -26.62, -21.64, -20.65, -28.41, -25.86, -16.88, -20.03, 0.000, 0.000, 0.000, 20:49:23.591, 1541900963591
243, -18.15, -26.51, -21.32, -20.97, -28.43, -26.02, -16.76, -20.03, 0.028, 0.956, 0.274, 20:49:23.591, 1541900963591
244, -18.06, -26.73, -21.37, -20.83, -28.19, -25.97, -16.56, -19.83, 0.000, 0.000, 0.000, 20:49:23.591, 1541900963591
245, -18.24, -26.80, -21.59, -20.85, -28.25, -25.97, -16.74, -19.76, 0.000, 0.000, 0.000, 20:49:23.591, 1541900963591
246, -18.08, -26.76, -21.64, -20.88, -28.34, -25.95, -16.96, -19.87, 0.000, 0.000, 0.000, 20:49:23.591, 1541900963591
247, -17.75, -26.73, -21.44, -20.83, -28.54, -25.86, -16.96, -20.07, 0.000, 0.000, 0.000, 20:49:23.591, 1541900963591
248, -17.64, -26.67, -21.50, -20.92, -28.30, -26.02, -17.03, -19.80, 0.000, 0.000, 0.000, 20:49:23.591, 1541900963591
249, -17.86, -26.55, -21.66, -20.70, -28.19, -26.08, -16.92, -19.80, 0.000, 0.000, 0.000, 20:49:23.591, 1541900963591
250, -18.04, -26.60, -21.57, -20.76, -28.14, -26.08, -16.90, -19.83, 0.000, 0.000, 0.000, 20:49:23.591, 1541900963591
251, -18.08, -26.62, -21.35, -20.72, -28.14, -25.97, -16.92, -19.80, 0.000, 0.000, 0.000, 20:49:23.591, 1541900963591
252, -18.04, -26.53, -21.41, -21.06, -28.32, -26.06, -17.05, -19.80, 0.026, 0.958, 0.268, 20:49:23.592, 1541900963592
253, -18.06, -26.80, -21.46, -21.06, -28.52, -26.24, -16.92, -19.87, 0.000, 0.000, 0.000, 20:49:23.592, 1541900963592
254, -17.90, -26.78, -21.32, -21.03, -28.36, -26.24, -16.85, -19.92, 0.000, 0.000, 0.000, 20:49:23.592, 1541900963592
255, -17.81, -26.69, -21.37, -20.70, -28.10, -26.02, -17.03, -19.83, 0.000, 0.000, 0.000, 20:49:23.592, 1541900963592
0, -17.86, -26.69, -21.44, -20.72, -28.25, -26.22, -17.03, -19.83, 0.000, 0.000, 0.000, 20:49:23.592, 1541900963592
1, -18.06, -26.80, -21.59, -20.85, -28.36, -26.24, -16.99, -19.80, 0.000, 0.000, 0.000, 20:49:23.592, 1541900963592
2, -18.15, -26.71, -21.50, -20.85, -28.14, -26.13, -16.85, -19.87, 0.000, 0.000, 0.000, 20:49:23.592, 1541900963592
3, -17.95, -26.62, -21.44, -20.97, -28.23, -26.20, -16.74, -20.00, 0.000, 0.000, 0.000, 20:49:23.592, 1541900963592
4, -17.79, -26.89, -21.50, -20.99, -28.21, -26.31, -16.96, -20.12, 0.000, 0.000, 0.000, 20:49:23.592, 1541900963592
5, -17.93, -26.89, -21.57, -20.76, -28.41, -26.38, -16.90, -19.85, 0.000, 0.000, 0.000, 20:49:23.592, 1541900963592
6, -17.97, -26.80, -21.48, -20.88, -28.30, -26.26, -16.83, -19.98, 0.030, 0.954, 0.274, 20:49:23.592, 1541900963592
7, -18.06, -26.69, -21.44, -20.88, -28.41, -26.20, -16.88, -19.98, 0.000, 0.000, 0.000, 20:49:23.593, 1541900963593
8, -18.08, -26.71, -21.48, -20.99, -28.07, -26.24, -16.92, -19.89, 0.000, 0.000, 0.000, 20:49:23.593, 1541900963593
9, -17.68, -26.53, -21.52, -20.70, -28.03, -26.06, -16.76, -19.89, 0.000, 0.000, 0.000, 20:49:23.593, 1541900963593
10, -17.61, -26.67, -21.30, -20.72, -28.25, -25.97, -16.74, -20.07, 0.000, 0.000, 0.000, 20:49:23.593, 1541900963593
11, -18.02, -26.62, -21.50, -20.81, -28.45, -26.06, -16.94, -19.92, 0.000, 0.000, 0.000, 20:49:23.593, 1541900963593
12, -18.19, -26.82, -21.59, -20.76, -28.54, -26.15, -16.76, -19.89, 0.000, 0.000, 0.000, 20:49:23.593, 1541900963593
13, -17.99, -26.84, -21.35, -20.92, -28.43, -26.15, -16.83, -19.78, 0.000, 0.000, 0.000, 20:49:23.593, 1541900963593
14, -17.90, -26.80, -21.61, -20.81, -28.36, -26.15, -16.92, -19.74, 0.000, 0.000, 0.000, 20:49:23.593, 1541900963593
15, -17.93, -26.78, -21.55, -20.79, -28.36, -25.75, -17.01, -19.69, 0.000, 0.000, 0.000, 20:49:23.593, 1541900963593
16, -17.95, -26.51, -21.48, -20.74, -28.21, -25.77, -16.92, -19.65, 0.034, 0.960, 0.276, 20:49:23.593, 1541900963593
17, -18.08, -26.51, -21.59, -20.76, -28.34, -26.13, -16.81, -19.89, 0.000, 0.000, 0.000, 20:49:23.593, 1541900963593
18, -18.10, -26.73, -21.59, -20.92, -28.48, -26.17, -16.81, -19.87, 0.000, 0.000, 0.000, 20:49:23.593, 1541900963593
19, -18.08, -26.78, -21.59, -20.74, -28.30, -26.29, -17.08, -19.76, 0.000, 0.000, 0.000, 20:49:23.593, 1541900963593
20, -18.17, -26.87, -21.44, -20.54, -28.30, -26.08, -17.08, -20.05, 0.000, 0.000, 0.000, 20:49:23.593, 1541900963593
21, -18.35, -26.69, -21.37, -20.81, -28.25, -26.17, -17.14, -20.07, 0.000, 0.000, 0.000, 20:49:23.593, 1541900963593
22, -18.04, -27.00, -21.37, -20.99, -28.05, -26.24, -16.90, -19.80, 0.000, 0.000, 0.000, 20:49:23.594, 1541900963594
23, -18.02, -26.73, -21.48, -20.81, -28.25, -26.29, -16.92, -19.69, 0.000, 0.000, 0.000, 20:49:23.594, 1541900963594
24, -17.99, -26.64, -21.39, -20.88, -28.32, -26.22, -16.81, -19.80, 0.000, 0.000, 0.000, 20:49:23.594, 1541900963594
25, -17.97, -26.91, -21.44, -20.99, -28.25, -26.13, -16.70, -19.87, 0.000, 0.000, 0.000, 20:49:23.594, 1541900963594
26, -18.04, -26.78, -21.46, -20.99, -27.96, -26.24, -16.74, -19.87, 0.032, 0.964, 0.278, 20:49:23.594, 1541900963594
27, -18.08, -26.78, -21.46, -21.10, -28.14, -26.31, -16.90, -19.71, 0.000, 0.000, 0.000, 20:49:23.594, 1541900963594
28, -17.93, -26.69, -21.61, -21.12, -28.59, -26.08, -16.94, -19.80, 0.000, 0.000, 0.000, 20:49:23.594, 1541900963594
29, -17.81, -26.69, -21.37, -20.94, -28.74, -25.97, -16.94, -20.09, 0.000, 0.000, 0.000, 20:49:23.594, 1541900963594
30, -17.86, -26.89, -21.55, -21.03, -28.43, -25.86, -16.96, -19.94, 0.000, 0.000, 0.000, 20:49:23.594, 1541900963594
31, -18.04, -26.96, -21.52, -21.03, -28.32, -25.88, -16.94, -19.92, 0.000, 0.000, 0.000, 20:49:23.594, 1541900963594
32, -18.06, -26.69, -21.55, -20.94, -28.30, -26.06, -16.74, -19.83, 0.000, 0.000, 0.000, 20:49:23.594, 1541900963594
33, -17.90, -26.84, -21.55, -20.94, -28.10, -26.26, -16.96, -19.60, 0.000, 0.000, 0.000, 20:49:23.594, 1541900963594
34, -17.93, -26.87, -21.39, -20.65, -28.25, -26.38, -17.03, -19.74, 0.000, 0.000, 0.000, 20:49:23.594, 1541900963594
35, -17.70, -26.67, -21.35, -20.72, -28.36, -26.31, -16.90, -19.94, 0.000, 0.000, 0.000, 20:49:23.594, 1541900963594
36, -17.75, -26.73, -21.28, -20.85, -28.52, -26.29, -16.85, -19.94, 0.026, 0.970, 0.280, 20:49:23.594, 1541900963594
37, -17.93, -26.55, -21.35, -20.90, -28.43, -26.35, -17.03, -19.83, 0.000, 0.000, 0.000, 20:49:23.594, 1541900963594
38, -17.90, -26.33, -21.55, -21.01, -28.54, -26.40, -17.08, -19.76, 0.000, 0.000, 0.000, 20:49:23.594, 1541900963594
39, -17.88, -26.42, -21.59, -20.99, -28.65, -26.31, -17.12, -19.65, 0.000, 0.000, 0.000, 20:49:23.594, 1541900963594
40, -18.02, -26.69, -21.35, -20.81, -28.45, -26.02, -17.03, -20.00, 0.000, 0.000, 0.000, 20:49:23.594, 1541900963594
41, -18.04, -26.71, -21.41, -20.54, -28.39, -26.13, -17.03, -19.98, 0.000, 0.000, 0.000, 20:49:23.595, 1541900963595
42, -18.13, -26.67, -21.55, -20.88, -28.25, -26.20, -16.96, -19.76, 0.000, 0.000, 0.000, 20:49:23.595, 1541900963595
43, -17.97, -26.64, -21.46, -20.83, -28.23, -26.17, -16.94, -19.89, 0.000, 0.000, 0.000, 20:49:23.595, 1541900963595
44, -17.75, -26.64, -21.12, -20.90, -28.30, -26.31, -17.05, -19.74, 0.000, 0.000, 0.000, 20:49:23.595, 1541900963595
45, -17.90, -26.64, -21.28, -20.85, -28.41, -26.20, -16.94, -19.89, 0.024, 0.972, 0.284, 20:49:23.595, 1541900963595
46, -17.93, -26.96, -21.39, -20.81, -28.41, -26.06, -16.76, -19.80, 0.000, 0.000, 0.000, 20:49:23.595, 1541900963595
47, -18.04, -26.87, -21.48, -20.76, -28.32, -26.24, -16.81, -19.71, 0.000, 0.000, 0.000, 20:49:23.595, 1541900963595
48, -18.06, -26.84, -21.28, -20.83, -28.03, -26.06, -16.81, -19.80, 0.000, 0.000, 0.000, 20:49:23.595, 1541900963595
49, -18.13, -26.69, -21.61, -20.88, -28.21, -25.91, -16.81, -20.03, 0.000, 0.000, 0.000, 20:49:23.595, 1541900963595
50, -18.08, -26.73, -21.57, -20.76, -28.45, -25.95, -16.94, -19.92, 0.000, 0.000, 0.000, 20:49:23.595, 1541900963595
51, -18.15, -26.69, -21.50, -20.65, -28.41, -25.91, -16.96, -19.76, 0.000, 0.000, 0.000, 20:49:23.595, 1541900963595
52, -17.93, -26.55, -21.64, -20.79, -28.57, -25.82, -17.12, -19.83, 0.000, 0.000, 0.000, 20:49:23.595, 1541900963595
53, -17.68, -26.82, -21.44, -21.08, -28.45, -25.91, -17.01, -19.65, 0.000, 0.000, 0.000, 20:49:23.595, 1541900963595
54, -17.68, -26.84, -21.46, -21.06, -28.72, -26.08, -17.10, -19.54, 0.000, 0.000, 0.000, 20:49:23.595, 1541900963595
55, -17.93, -26.67, -21.39, -20.70, -28.52, -26.22, -16.85, -19.83, 0.030, 0.970, 0.288, 20:49:23.595, 1541900963595
56, -17.90, -26.53, -21.44, -20.72, -28.48, -26.24, -16.99, -20.03, 0.000, 0.000, 0.000, 20:49:23.595, 1541900963595
57, -17.99, -26.67, -21.84, -20.88, -28.36, -26.13, -16.83, -19.87, 0.000, 0.000, 0.000, 20:49:23.596, 1541900963596
58, -17.86, -26.84, -21.77, -20.88, -28.27, -26.04, -16.67, -19.65, 0.000, 0.000, 0.000, 20:49:23.596, 1541900963596
59, -17.79, -26.89, -21.52, -20.83, -28.21, -26.13, -16.92, -19.85, 0.000, 0.000, 0.000, 20:49:23.596, 1541900963596
60, -17.90, -27.02, -21.48, -20.81, -28.25, -26.06, -16.94, -20.09, 0.000, 0.000, 0.000, 20:49:23.596, 1541900963596
61, -17.86, -26.89, -21.26, -20.81, -28.39, -26.08, -16.85, -19.76, 0.000, 0.000, 0.000, 20:49:23.596, 1541900963596
62, -17.95, -26.96, -21.12, -20.94, -28.54, -26.17, -17.01, -19.94, 0.000, 0.000, 0.000, 20:49:23.596, 1541900963596
63, -17.79, -26.98, -21.28, -21.03, -28.32, -26.35, -17.05, -19.92, 0.000, 0.000, 0.000, 20:49:23.596, 1541900963596
64, -17.79, -26.84, -21.70, -21.14, -28.32, -26.20, -17.17, -19.65, 0.000, 0.000, 0.000, 20:49:23.596, 1541900963596
65, -17.88, -26.98, -21.64, -20.83, -28.54, -25.97, -16.81, -19.65, 0.028, 0.970, 0.278, 20:49:23.596, 1541900963596
66, -17.99, -26.93, -21.50, -20.94, -28.36, -25.75, -16.96, -19.65, 0.000, 0.000, 0.000, 20:49:23.596, 1541900963596
67, -17.93, -26.96, -21.64, -21.10, -28.32, -26.02, -17.01, -19.80, 0.000, 0.000, 0.000, 20:49:23.596, 1541900963596
68, -17.95, -26.91, -21.75, -20.88, -28.34, -26.17, -16.90, -19.69, 0.000, 0.000, 0.000, 20:49:23.596, 1541900963596
69, -17.90, -26.87, -21.73, -20.74, -28.36, -26.35, -16.90, -19.80, 0.000, 0.000, 0.000, 20:49:23.596, 1541900963596
70, -17.93, -26.51, -21.37, -20.76, -28.36, -26.20, -16.92, -19.87, 0.000, 0.000, 0.000, 20:49:23.596, 1541900963596
71, -17.93, -26.29, -21.50, -20.76, -28.41, -25.91, -17.03, -19.78, 0.000, 0.000, 0.000, 20:49:23.596, 1541900963596
72, -18.19, -26.42, -21.48, -20.92, -28.41, -25.97, -17.12, -19.60, 0.000, 0.000, 0.000, 20:49:23.597, 1541900963597
73, -18.08, -26.76, -21.21, -20.63, -28.36, -26.26, -16.92, -19.60, 0.000, 0.000, 0.000, 20:49:23.597, 1541900963597
74, -17.97, -26.84, -21.41, -20.59, -28.41, -26.04, -16.83, -20.05, 0.000, 0.000, 0.000, 20:49:23.597, 1541900963597
75, -17.86, -26.64, -21.61, -20.70, -28.48, -26.02, -16.92, -19.92, 0.028, 0.968, 0.276, 20:49:23.597, 1541900963597
76, -17.99, -26.87, -21.50, -21.06, -28.57, -26.20, -17.03, -19.67, 0.000, 0.000, 0.000, 20:49:23.597, 1541900963597
77, -18.02, -26.76, -21.50, -20.88, -28.19, -26.08, -16.83, -19.80, 0.000, 0.000, 0.000, 20:49:23.597, 1541900963597
78, -17.86, -26.69, -21.48, -20.90, -28.21, -26.20, -17.03, -19.60, 0.000, 0.000, 0.000, 20:49:23.597, 1541900963597
79, -17.90, -26.64, -21.39, -20.83, -28.19, -26.08, -16.94, -19.96, 0.000, 0.000, 0.000, 20:49:23.597, 1541900963597
80, -18.04, -26.67, -21.55, -20.83, -28.27, -26.08, -16.90, -19.87, 0.000, 0.000, 0.000, 20:49:23.597, 1541900963597
81, -17.81, -26.42, -21.37, -20.92, -27.98, -25.86, -16.70, -19.96, 0.000, 0.000, 0.000, 20:49:23.597, 1541900963597
82, -18.06, -26.64, -21.48, -20.97, -28.25, -25.84, -17.08, -19.98, 0.000, 0.000, 0.000, 20:49:23.597, 1541900963597
83, -17.97, -26.76, -21.48, -20.72, -28.25, -26.00, -17.28, -20.09, 0.000, 0.000, 0.000, 20:49:23.598, 1541900963598
84, -18.13, -26.62, -21.21, -20.97, -28.43, -26.24, -16.85, -20.03, 0.000, 0.000, 0.000, 20:49:23.598, 1541900963598
85, -17.93, -26.60, -21.44, -21.12, -28.25, -26.44, -16.96, -20.09, 0.032, 0.966, 0.276, 20:49:23.598, 1541900963598
86, -18.17, -26.62, -21.50, -21.01, -28.03, -26.17, -17.01, -20.03, 0.000, 0.000, 0.000, 20:49:23.598, 1541900963598
87, -17.99, -26.69, -21.44, -20.65, -28.30, -26.00, -16.92, -19.71, 0.000, 0.000, 0.000, 20:49:23.598, 1541900963598
88, -17.86, -26.64, -21.57, -20.70, -28.45, -26.11, -16.90, -19.71, 0.000, 0.000, 0.000, 20:49:23.598, 1541900963598
89, -17.93, -26.67, -21.55, -20.72, -28.50, -26.17, -16.96, -19.80, 0.000, 0.000, 0.000, 20:49:23.598, 1541900963598
90, -17.90, -26.73, -21.39, -20.83, -28.32, -26.00, -17.14, -19.78, 0.000, 0.000, 0.000, 20:49:23.598, 1541900963598
91, -17.81, -26.87, -21.48, -20.81, -28.19, -25.91, -17.19, -19.71, 0.000, 0.000, 0.000, 20:49:23.598, 1541900963598
92, -17.84, -26.80, -21.46, -20.63, -28.19, -25.84, -17.08, -19.83, 0.000, 0.000, 0.000, 20:49:23.599, 1541900963599
93, -17.86, -26.82, -21.32, -20.79, -28.19, -26.00, -16.96, -19.94, 0.000, 0.000, 0.000, 20:49:23.599, 1541900963599
94, -17.97, -26.69, -21.44, -20.88, -28.07, -26.49, -16.85, -19.71, 0.026, 0.964, 0.274, 20:49:23.599, 1541900963599
95, -17.97, -26.71, -21.37, -20.92, -28.36, -26.38, -16.85, -19.76, 0.000, 0.000, 0.000, 20:49:23.599, 1541900963599
96, -17.99, -26.80, -21.48, -21.14, -28.43, -26.04, -17.01, -19.92, 0.000, 0.000, 0.000, 20:49:23.599, 1541900963599
97, -17.90, -26.69, -21.59, -20.97, -28.41, -26.17, -16.96, -20.05, 0.000, 0.000, 0.000, 20:49:23.599, 1541900963599
98, -17.84, -26.73, -21.37, -20.72, -28.34, -26.13, -17.14, -19.96, 0.000, 0.000, 0.000, 20:49:23.599, 1541900963599
99, -18.04, -26.78, -21.23, -20.72, -28.10, -26.17, -17.19, -19.71, 0.000, 0.000, 0.000, 20:49:23.599, 1541900963599
100, -18.17, -26.31, -21.32, -20.83, -28.30, -26.33, -17.08, -19.78, 0.000, 0.000, 0.000, 20:49:23.599, 1541900963599
101, -18.19, -26.46, -21.32, -21.03, -28.52, -26.22, -16.72, -19.85, 0.000, 0.000, 0.000, 20:49:23.599, 1541900963599
102, -17.90, -26.76, -21.44, -20.88, -28.41, -25.97, -16.79, -19.80, 0.000, 0.000, 0.000, 20:49:23.599, 1541900963599
103, -18.13, -26.84, -21.50, -20.81, -28.32, -26.17, -16.85, -19.87, 0.000, 0.000, 0.000, 20:49:23.600, 1541900963600
104, -18.19, -26.78, -21.44, -20.88, -28.34, -26.31, -16.70, -20.03, 0.026, 0.966, 0.278, 20:49:23.600, 1541900963600
105, -17.95, -26.62, -21.59, -20.83, -28.23, -25.93, -16.88, -20.07, 0.000, 0.000, 0.000, 20:49:24.066, 1541900964066
106, -17.86, -26.67, -21.61, -20.76, -28.21, -25.84, -16.92, -19.89, 0.000, 0.000, 0.000, 20:49:24.067, 1541900964067
107, -17.97, -26.58, -21.57, -20.99, -28.25, -26.08, -16.90, -19.98, 0.000, 0.000, 0.000, 20:49:24.067, 1541900964067
108, -18.22, -26.71, -21.48, -21.10, -28.41, -26.08, -16.74, -19.94, 0.000, 0.000, 0.000, 20:49:24.067, 1541900964067
109, -17.81, -27.02, -21.35, -20.79, -28.39, -26.17, -16.92, -19.92, 0.000, 0.000, 0.000, 20:49:24.067, 1541900964067
110, -17.84, -26.96, -21.28, -20.56, -28.10, -26.15, -16.96, -19.76, 0.000, 0.000, 0.000, 20:49:24.067, 1541900964067
111, -17.81, -26.80, -21.32, -20.85, -28.19, -26.20, -16.92, -19.83, 0.000, 0.000, 0.000, 20:49:24.067, 1541900964067
112, -17.95, -26.82, -21.32, -20.38, -28.65, -26.20, -17.03, -19.85, 0.000, 0.000, 0.000, 20:49:24.067, 1541900964067
113, -17.99, -26.84, -21.35, -20.54, -28.41, -26.04, -16.92, -19.94, 0.000, 0.000, 0.000, 20:49:24.067, 1541900964067
114, -17.93, -26.78, -21.55, -20.92, -28.16, -26.20, -16.81, -20.09, 0.024, 0.964, 0.280, 20:49:24.067, 1541900964067
115, -17.75, -26.78, -21.44, -20.88, -28.21, -26.42, -16.90, -20.16, 0.000, 0.000, 0.000, 20:49:24.067, 1541900964067
116, -17.59, -26.73, -21.26, -20.61, -28.45, -26.20, -17.01, -20.12, 0.000, 0.000, 0.000, 20:49:24.067, 1541900964067
117, -17.84, -27.02, -21.32, -20.74, -28.52, -26.24, -16.92, -19.74, 0.000, 0.000, 0.000, 20:49:24.067, 1541900964067
118, -17.84, -27.20, -21.48, -20.88, -28.43, -25.93, -16.85, -19.76, 0.000, 0.000, 0.000, 20:49:24.068, 1541900964068
119, -17.75, -26.87, -21.48, -20.79, -28.25, -25.95, -16.81, -19.83, 0.000, 0.000, 0.000, 20:49:24.068, 1541900964068
120, -17.90, -26.71, -21.21, -20.76, -28.52, -25.86, -16.83, -20.00, 0.000, 0.000, 0.000, 20:49:24.068, 1541900964068
121, -17.88, -26.84, -21.48, -20.94, -28.54, -26.20, -17.05, -20.21, 0.000, 0.000, 0.000, 20:49:24.068, 1541900964068
122, -17.79, -26.82, -21.50, -20.94, -28.39, -26.31, -16.88, -20.09, 0.000, 0.000, 0.000, 20:49:24.068, 1541900964068
123, -18.02, -26.73, -21.57, -21.03, -28.19, -26.11, -17.01, -19.94, 0.000, 0.000, 0.000, 20:49:24.068, 1541900964068
124, -18.02, -26.60, -21.39, -21.17, -28.27, -26.06, -17.01, -19.92, 0.026, 0.966, 0.280, 20:49:24.068, 1541900964068
125, -17.95, -26.64, -21.59, -20.99, -28.36, -25.95, -16.90, -19.80, 0.000, 0.000, 0.000, 20:49:24.068, 1541900964068
126, -17.79, -26.46, -21.44, -20.81, -28.27, -26.04, -16.94, -19.60, 0.000, 0.000, 0.000, 20:49:24.068, 1541900964068
127, -17.84, -26.42, -21.61, -20.99, -28.43, -26.04, -17.03, -19.69, 0.000, 0.000, 0.000, 20:49:24.068, 1541900964068
128, -18.02, -26.71, -21.39, -20.88, -28.32, -26.06, -17.08, -19.65, 0.000, 0.000, 0.000, 20:49:24.068, 1541900964068
129, -18.15, -26.64, -21.21, -20.92, -28.16, -26.04, -16.96, -19.80, 0.000, 0.000, 0.000, 20:49:24.068, 1541900964068
130, -18.13, -26.80, -21.41, -20.90, -28.03, -26.33, -17.12, -19.85, 0.000, 0.000, 0.000, 20:49:24.069, 1541900964069
131, -17.99, -26.80, -21.57, -20.76, -28.12, -25.95, -17.10, -19.83, 0.000, 0.000, 0.000, 20:49:24.069, 1541900964069
132, -18.02, -26.80, -21.44, -20.90, -28.01, -26.24, -17.03, -19.67, 0.000, 0.000, 0.000, 20:49:24.069, 1541900964069
133, -18.04, -26.84, -21.37, -20.97, -28.05, -26.40, -16.92, -19.71, 0.030, 0.966, 0.280, 20:49:24.069, 1541900964069
134, -17.93, -26.89, -21.21, -20.90, -28.23, -26.24, -16.85, -19.74, 0.000, 0.000, 0.000, 20:49:24.069, 1541900964069
135, -17.97, -26.62, -21.26, -20.90, -28.03, -26.02, -16.90, -19.76, 0.000, 0.000, 0.000, 20:49:24.069, 1541900964069
136, -17.86, -26.64, -21.44, -21.12, -28.25, -26.08, -17.01, -19.76, 0.000, 0.000, 0.000, 20:49:24.069, 1541900964069
137, -18.02, -26.62, -21.48, -20.97, -28.48, -26.44, -17.01, -19.89, 0.000, 0.000, 0.000, 20:49:24.069, 1541900964069
138, -17.95, -26.51, -21.46, -20.76, -28.54, -26.29, -16.96, -19.47, 0.000, 0.000, 0.000, 20:49:24.069, 1541900964069
139, -17.86, -26.42, -21.32, -20.83, -28.25, -26.17, -16.79, -19.51, 0.000, 0.000, 0.000, 20:49:24.069, 1541900964069
140, -17.88, -26.51, -21.32, -21.01, -28.14, -26.35, -16.83, -19.89, 0.000, 0.000, 0.000, 20:49:24.070, 1541900964070
141, -17.90, -26.87, -21.39, -20.99, -28.19, -26.53, -16.74, -19.89, 0.000, 0.000, 0.000, 20:49:24.070, 1541900964070
142, -17.97, -26.91, -21.61, -20.90, -28.21, -26.08, -16.88, -19.92, 0.000, 0.000, 0.000, 20:49:24.070, 1541900964070
143, -18.08, -26.76, -21.55, -20.79, -28.36, -26.11, -16.85, -19.92, 0.024, 0.964, 0.278, 20:49:24.070, 1541900964070
144, -17.97, -26.73, -21.55, -20.94, -28.25, -26.02, -16.88, -19.83, 0.000, 0.000, 0.000, 20:49:24.070, 1541900964070
145, -18.19, -26.76, -21.39, -20.94, -28.10, -26.26, -16.83, -19.67, 0.000, 0.000, 0.000, 20:49:24.070, 1541900964070
146, -18.02, -26.96, -21.55, -21.10, -28.19, -26.20, -16.85, -19.89, 0.000, 0.000, 0.000, 20:49:24.070, 1541900964070
147, -17.81, -26.91, -21.59, -21.03, -28.16, -26.26, -17.08, -20.00, 0.000, 0.000, 0.000, 20:49:24.070, 1541900964070
148, -18.08, -26.82, -21.61, -20.61, -28.16, -26.17, -17.05, -19.94, 0.000, 0.000, 0.000, 20:49:24.070, 1541900964070
149, -17.90, -26.71, -21.44, -20.70, -28.32, -26.08, -16.96, -19.42, 0.000, 0.000, 0.000, 20:49:24.070, 1541900964070
150, -17.90, -26.80, -21.79, -20.88, -28.14, -25.91, -16.99, -19.54, 0.000, 0.000, 0.000, 20:49:24.070, 1541900964070
151, -18.02, -26.98, -21.59, -20.99, -28.25, -25.97, -16.79, -19.76, 0.000, 0.000, 0.000, 20:49:24.071, 1541900964071
152, -18.15, -27.09, -21.55, -20.83, -28.30, -26.20, -16.92, -20.16, 0.000, 0.000, 0.000, 20:49:24.071, 1541900964071
153, -18.10, -26.96, -21.39, -20.76, -28.36, -26.13, -17.01, -20.14, 0.028, 0.966, 0.280, 20:49:24.071, 1541900964071
154, -17.90, -26.89, -21.48, -21.01, -28.30, -25.97, -17.14, -19.83, 0.000, 0.000, 0.000, 20:49:24.071, 1541900964071
155, -18.02, -26.71, -21.39, -20.94, -28.32, -26.20, -16.99, -19.65, 0.000, 0.000, 0.000, 20:49:24.071, 1541900964071
156, -18.02, -26.62, -21.44, -21.06, -28.23, -26.22, -16.99, -19.69, 0.000, 0.000, 0.000, 20:49:24.072, 1541900964072
157, -18.02, -26.67, -21.55, -21.06, -28.25, -26.08, -16.92, -19.92, 0.000, 0.000, 0.000, 20:49:24.072, 1541900964072
158, -17.81, -26.69, -21.39, -20.88, -28.34, -26.04, -16.92, -19.80, 0.000, 0.000, 0.000, 20:49:24.072, 1541900964072
159, -17.90, -26.67, -21.35, -20.74, -28.32, -26.13, -16.96, -19.85, 0.000, 0.000, 0.000, 20:49:24.072, 1541900964072
160, -17.81, -26.62, -21.26, -20.56, -28.23, -25.97, -17.08, -19.83, 0.000, 0.000, 0.000, 20:49:24.072, 1541900964072
161, -17.84, -26.76, -21.46, -20.85, -28.39, -26.06, -17.19, -19.60, 0.000, 0.000, 0.000, 20:49:24.072, 1541900964072
162, -17.93, -26.73, -21.32, -20.79, -28.30, -26.17, -16.83, -19.89, 0.000, 0.000, 0.000, 20:49:24.072, 1541900964072
163, -18.04, -26.80, -21.39, -20.79, -28.43, -26.24, -16.76, -19.78, 0.028, 0.966, 0.278, 20:49:24.072, 1541900964072
164, -17.99, -26.64, -21.55, -20.74, -28.48, -26.02, -16.81, -19.71, 0.000, 0.000, 0.000, 20:49:24.073, 1541900964073
165, -17.99, -26.67, -21.44, -20.92, -28.48, -26.13, -17.05, -19.85, 0.000, 0.000, 0.000, 20:49:24.073, 1541900964073
166, -18.15, -26.69, -21.48, -20.94, -28.65, -26.44, -17.01, -19.76, 0.000, 0.000, 0.000, 20:49:24.074, 1541900964074
167, -18.08, -26.58, -21.59, -21.01, -28.43, -26.29, -16.90, -19.71, 0.000, 0.000, 0.000, 20:49:24.075, 1541900964075
168, -18.04, -26.40, -21.39, -20.76, -28.36, -26.11, -16.83, -19.78, 0.000, 0.000, 0.000, 20:49:24.075, 1541900964075
169, -18.15, -26.64, -21.48, -21.01, -28.36, -26.24, -16.79, -19.83, 0.000, 0.000, 0.000, 20:49:24.075, 1541900964075
170, -17.86, -26.84, -21.48, -21.03, -28.05, -26.31, -16.72, -19.87, 0.000, 0.000, 0.000, 20:49:24.075, 1541900964075
171, -17.97, -26.69, -21.50, -20.83, -28.14, -26.20, -16.88, -19.80, 0.000, 0.000, 0.000, 20:49:24.075, 1541900964075
172, -18.10, -26.69, -21.39, -21.06, -28.25, -26.29, -17.12, -19.74, 0.000, 0.000, 0.000, 20:49:24.075, 1541900964075
173, -17.97, -26.64, -21.48, -21.08, -28.36, -26.00, -17.12, -19.83, 0.028, 0.964, 0.282, 20:49:24.075, 1541900964075
174, -17.75, -26.64, -21.75, -21.03, -28.34, -25.97, -16.96, -19.87, 0.000, 0.000, 0.000, 20:49:24.075, 1541900964075
175, -17.70, -26.64, -21.59, -21.03, -28.43, -26.33, -16.85, -19.89, 0.000, 0.000, 0.000, 20:49:24.077, 1541900964077
176, -17.93, -26.76, -21.37, -20.99, -28.43, -26.31, -16.79, -19.92, 0.000, 0.000, 0.000, 20:49:24.077, 1541900964077
177, -17.95, -26.64, -21.59, -20.94, -28.36, -25.97, -16.76, -19.89, 0.000, 0.000, 0.000, 20:49:24.077, 1541900964077
178, -18.13, -26.96, -21.52, -20.97, -28.36, -26.13, -16.81, -19.89, 0.000, 0.000, 0.000, 20:49:24.077, 1541900964077
179, -17.86, -26.84, -21.46, -20.94, -28.54, -26.22, -17.01, -19.83, 0.000, 0.000, 0.000, 20:49:24.077, 1541900964077
180, -17.64, -26.93, -21.46, -20.72, -28.45, -26.29, -16.96, -19.92, 0.000, 0.000, 0.000, 20:49:24.077, 1541900964077
181, -18.04, -26.96, -21.39, -20.81, -28.32, -26.22, -17.03, -19.83, 0.000, 0.000, 0.000, 20:49:24.078, 1541900964078
182, -18.04, -26.64, -21.41, -20.81, -28.36, -26.22, -16.96, -19.87, 0.024, 0.960, 0.284, 20:49:24.078, 1541900964078
183, -18.10, -26.76, -21.48, -20.72, -28.45, -25.95, -16.92, -19.94, 0.000, 0.000, 0.000, 20:49:24.078, 1541900964078
184, -17.95, -26.82, -21.50, -21.01, -28.32, -26.35, -17.03, -19.89, 0.000, 0.000, 0.000, 20:49:24.078, 1541900964078
185, -18.37, -26.64, -21.48, -20.97, -28.21, -26.24, -16.96, -19.71, 0.000, 0.000, 0.000, 20:49:24.078, 1541900964078
186, -18.17, -26.46, -21.52, -21.08, -28.30, -26.02, -17.08, -19.92, 0.000, 0.000, 0.000, 20:49:24.078, 1541900964078
187, -18.19, -26.64, -21.39, -20.63, -28.43, -26.31, -17.03, -19.78, 0.000, 0.000, 0.000, 20:49:24.078, 1541900964078
188, -18.13, -26.87, -21.23, -20.76, -28.23, -26.29, -16.92, -19.83, 0.000, 0.000, 0.000, 20:49:24.078, 1541900964078
189, -17.81, -26.55, -21.46, -21.01, -28.14, -26.26, -16.72, -19.94, 0.000, 0.000, 0.000, 20:49:24.078, 1541900964078
190, -17.86, -26.71, -21.48, -21.03, -28.25, -26.15, -16.90, -20.21, 0.000, 0.000, 0.000, 20:49:24.078, 1541900964078
191, -17.72, -26.89, -21.55, -21.10, -28.14, -26.08, -16.79, -19.98, 0.000, 0.000, 0.000, 20:49:24.078, 1541900964078
192, -17.86, -26.67, -21.55, -21.01, -28.21, -26.15, -16.90, -19.65, 0.028, 0.966, 0.280, 20:49:24.078, 1541900964078
193, -17.93, -26.69, -21.50, -20.88, -28.34, -26.13, -16.96, -19.78, 0.000, 0.000, 0.000, 20:49:24.079, 1541900964079
194, -17.81, -26.58, -21.21, -20.81, -28.14, -26.24, -16.90, -19.98, 0.000, 0.000, 0.000, 20:49:24.079, 1541900964079
195, -18.02, -26.93, -21.44, -20.81, -28.25, -26.15, -16.70, -20.05, 0.000, 0.000, 0.000, 20:49:24.079, 1541900964079
196, -18.15, -26.49, -21.77, -20.81, -28.39, -25.97, -16.56, -19.83, 0.000, 0.000, 0.000, 20:49:24.079, 1541900964079
197, -17.81, -26.46, -21.50, -21.06, -28.32, -25.97, -16.83, -19.76, 0.000, 0.000, 0.000, 20:49:24.079, 1541900964079
198, -17.99, -26.53, -21.26, -21.06, -28.32, -26.31, -16.88, -19.67, 0.000, 0.000, 0.000, 20:49:24.079, 1541900964079
199, -18.15, -26.73, -21.10, -21.08, -28.23, -26.13, -16.72, -19.83, 0.000, 0.000, 0.000, 20:49:24.079, 1541900964079
200, -17.97, -26.80, -21.39, -20.83, -28.16, -26.02, -16.79, -19.98, 0.000, 0.000, 0.000, 20:49:24.079, 1541900964079
201, -18.08, -26.69, -21.55, -20.97, -28.34, -26.20, -16.90, -19.78, 0.000, 0.000, 0.000, 20:49:24.079, 1541900964079
202, -18.13, -26.69, -21.37, -21.10, -28.23, -26.24, -16.90, -19.65, 0.034, 0.962, 0.284, 20:49:24.079, 1541900964079
203, -17.93, -26.69, -21.39, -20.94, -28.16, -26.24, -17.12, -19.78, 0.000, 0.000, 0.000, 20:49:24.079, 1541900964079
204, -17.99, -26.96, -21.48, -20.83, -28.27, -26.06, -17.12, -19.87, 0.000, 0.000, 0.000, 20:49:24.080, 1541900964080
205, -17.86, -26.53, -21.44, -20.76, -28.25, -26.17, -17.05, -20.05, 0.000, 0.000, 0.000, 20:49:24.080, 1541900964080
206, -17.79, -26.64, -21.66, -20.70, -28.34, -26.13, -16.85, -20.03, 0.000, 0.000, 0.000, 20:49:24.080, 1541900964080
207, -17.84, -26.87, -21.57, -20.81, -28.34, -26.04, -16.90, -19.78, 0.000, 0.000, 0.000, 20:49:24.080, 1541900964080
208, -17.99, -26.89, -21.30, -20.94, -28.43, -26.00, -17.14, -19.58, 0.000, 0.000, 0.000, 20:49:24.080, 1541900964080
209, -18.26, -26.73, -21.46, -20.81, -28.74, -26.15, -16.92, -19.92, 0.000, 0.000, 0.000, 20:49:24.080, 1541900964080
210, -17.97, -26.62, -21.66, -20.81, -28.43, -26.33, -17.05, -19.94, 0.000, 0.000, 0.000, 20:49:24.080, 1541900964080
211, -18.13, -26.55, -21.32, -20.97, -28.41, -26.06, -17.08, -19.80, 0.000, 0.000, 0.000, 20:49:24.080, 1541900964080
212, -18.13, -26.87, -21.57, -20.92, -28.19, -26.04, -16.85, -20.21, 0.032, 0.966, 0.286, 20:49:24.080, 1541900964080
213, -17.88, -26.87, -21.61, -20.90, -28.03, -26.11, -16.90, -19.96, 0.000, 0.000, 0.000, 20:49:24.081, 1541900964081
214, -18.13, -26.62, -21.39, -20.97, -28.03, -26.13, -17.17, -19.78, 0.000, 0.000, 0.000, 20:49:24.081, 1541900964081
215, -17.90, -26.62, -21.55, -20.99, -28.19, -26.06, -16.96, -19.71, 0.000, 0.000, 0.000, 20:49:24.081, 1541900964081
216, -17.81, -26.89, -21.70, -20.88, -28.30, -26.31, -17.19, -19.87, 0.000, 0.000, 0.000, 20:49:24.081, 1541900964081
217, -17.77, -27.02, -21.70, -20.70, -28.41, -26.46, -17.01, -19.78, 0.000, 0.000, 0.000, 20:49:24.081, 1541900964081
218, -17.75, -27.00, -21.61, -20.63, -28.41, -26.26, -16.79, -19.80, 0.000, 0.000, 0.000, 20:49:24.081, 1541900964081
219, -17.70, -26.96, -21.55, -20.88, -28.27, -26.22, -17.01, -19.83, 0.000, 0.000, 0.000, 20:49:24.081, 1541900964081
220, -17.97, -26.82, -21.61, -20.88, -28.36, -26.06, -16.99, -19.80, 0.000, 0.000, 0.000, 20:49:24.081, 1541900964081
221, -17.93, -26.62, -21.32, -20.88, -28.27, -26.00, -17.03, -19.80, 0.000, 0.000, 0.000, 20:49:24.081, 1541900964081
222, -18.04, -26.76, -21.39, -20.94, -28.23, -26.00, -16.96, -19.65, 0.034, 0.964, 0.282, 20:49:24.081, 1541900964081
223, -17.88, -26.76, -21.55, -20.85, -28.34, -26.02, -16.79, -19.54, 0.000, 0.000, 0.000, 20:49:24.082, 1541900964082
224, -17.75, -26.64, -21.50, -20.83, -28.19, -26.20, -16.92, -20.03, 0.000, 0.000, 0.000, 20:49:24.082, 1541900964082
225, -18.04, -26.67, -21.06, -21.08, -28.19, -25.95, -16.92, -20.07, 0.000, 0.000, 0.000, 20:49:24.554, 1541900964554
226, -18.02, -26.96, -21.12, -20.92, -28.10, -25.97, -17.10, -19.92, 0.000, 0.000, 0.000, 20:49:24.554, 1541900964554
227, -17.68, -26.87, -21.59, -20.81, -28.07, -26.06, -17.10, -19.87, 0.000, 0.000, 0.000, 20:49:24.555, 1541900964555
228, -17.86, -26.76, -21.73, -20.92, -28.36, -26.20, -16.96, -19.80, 0.000, 0.000, 0.000, 20:49:24.555, 1541900964555
229, -17.95, -26.69, -21.44, -20.90, -28.25, -26.29, -17.01, -19.76, 0.000, 0.000, 0.000, 20:49:24.556, 1541900964556
230, -18.10, -26.73, -21.32, -21.06, -28.21, -26.08, -16.96, -19.87, 0.000, 0.000, 0.000, 20:49:24.557, 1541900964557
231, -18.02, -26.73, -21.50, -20.81, -28.25, -26.04, -16.81, -19.69, 0.032, 0.962, 0.280, 20:49:24.557, 1541900964557
232, -17.88, -26.55, -21.70, -20.72, -28.19, -26.08, -16.99, -19.78, 0.000, 0.000, 0.000, 20:49:24.558, 1541900964558
233, -17.88, -26.60, -21.50, -20.70, -28.32, -26.20, -16.76, -19.94, 0.000, 0.000, 0.000, 20:49:24.559, 1541900964559
234, -17.97, -26.78, -21.48, -20.74, -28.32, -26.13, -16.94, -19.92, 0.000, 0.000, 0.000, 20:49:24.560, 1541900964560
235, -17.79, -26.78, -21.44, -20.81, -28.32, -26.06, -16.90, -20.09, 0.000, 0.000, 0.000, 20:49:24.560, 1541900964560
236, -17.97, -26.87, -21.50, -20.85, -28.19, -25.97, -16.88, -19.78, 0.000, 0.000, 0.000, 20:49:24.561, 1541900964561
237, -18.28, -26.78, -21.59, -20.92, -28.32, -25.86, -17.01, -19.69, 0.000, 0.000, 0.000, 20:49:24.561, 1541900964561
238, -18.24, -26.76, -21.37, -20.88, -28.45, -25.95, -16.74, -19.92, 0.000, 0.000, 0.000, 20:49:24.562, 1541900964562
239, -18.15, -26.76, -21.44, -20.72, -28.23, -26.08, -16.74, -20.09, 0.000, 0.000, 0.000, 20:49:24.562, 1541900964562
240, -17.97, -26.76, -21.28, -20.81, -28.41, -25.95, -16.94, -19.92, 0.000, 0.000, 0.000, 20:49:24.563, 1541900964563
241, -17.95, -26.58, -21.23, -20.92, -28.32, -26.15, -16.81, -19.89, 0.032, 0.968, 0.276, 20:49:24.563, 1541900964563
242, -17.70, -26.64, -21.26, -20.90, -28.59, -26.15, -16.79, -19.92, 0.000, 0.000, 0.000, 20:49:24.564, 1541900964564
243, -17.70, -26.67, -21.10, -21.08, -28.59, -26.04, -17.08, -19.69, 0.000, 0.000, 0.000, 20:49:24.564, 1541900964564
244, -18.13, -26.64, -21.32, -21.23, -28.48, -26.00, -16.72, -19.80, 0.000, 0.000, 0.000, 20:49:24.565, 1541900964565
245, -18.15, -26.73, -21.61, -21.06, -28.36, -26.06, -16.65, -19.83, 0.000, 0.000, 0.000, 20:49:24.565, 1541900964565
246, -17.81, -26.80, -21.55, -21.06, -28.30, -26.08, -17.03, -19.78, 0.000, 0.000, 0.000, 20:49:24.566, 1541900964566
247, -18.06, -26.84, -21.35, -20.83, -28.36, -26.20, -16.94, -19.49, 0.000, 0.000, 0.000, 20:49:24.566, 1541900964566
248, -17.86, -26.76, -21.37, -20.59, -28.21, -26.13, -16.92, -19.54, 0.000, 0.000, 0.000, 20:49:24.567, 1541900964567
249, -17.90, -26.62, -21.35, -20.88, -28.48, -26.04, -16.94, -19.76, 0.000, 0.000, 0.000, 20:49:24.567, 1541900964567
250, -17.86, -26.53, -21.30, -20.83, -28.30, -26.22, -16.90, -19.96, 0.000, 0.000, 0.000, 20:49:24.567, 1541900964567
251, -17.86, -26.60, -21.39, -20.65, -28.25, -26.17, -16.92, -20.03, 0.026, 0.966, 0.272, 20:49:24.568, 1541900964568
252, -18.02, -26.80, -21.46, -20.85, -28.32, -26.20, -17.14, -19.92, 0.000, 0.000, 0.000, 20:49:24.568, 1541900964568
253, -17.99, -26.84, -21.37, -21.10, -28.52, -26.20, -16.92, -19.94, 0.000, 0.000, 0.000, 20:49:24.569, 1541900964569
254, -17.88, -27.02, -21.61, -20.79, -28.21, -26.13, -16.76, -19.98, 0.000, 0.000, 0.000, 20:49:24.569, 1541900964569
255, -17.97, -26.84, -21.39, -20.81, -28.27, -26.13, -16.70, -19.94, 0.000, 0.000, 0.000, 20:49:24.570, 1541900964570
0, -18.28, -26.76, -21.28, -20.83, -28.52, -25.91, -16.81, -19.87, 0.000, 0.000, 0.000, 20:49:24.570, 1541900964570
1, -18.10, -26.62, -21.44, -20.79, -28.36, -26.02, -16.88, -19.96, 0.000, 0.000, 0.000, 20:49:24.573, 1541900964573
2, -18.19, -26.58, -21.61, -20.92, -28.23, -26.17, -16.90, -20.14, 0.000, 0.000, 0.000, 20:49:24.574, 1541900964574
3, -17.90, -26.84, -21.59, -21.14, -28.36, -26.35, -16.70, -20.14, 0.000, 0.000, 0.000, 20:49:24.574, 1541900964574
4, -17.88, -26.91, -21.46, -21.01, -28.52, -26.24, -16.67, -19.94, 0.000, 0.000, 0.000, 20:49:24.574, 1541900964574
5, -18.08, -26.84, -21.37, -20.85, -28.34, -26.06, -16.81, -20.03, 0.030, 0.964, 0.270, 20:49:24.575, 1541900964575
6, -17.99, -26.69, -21.50, -20.70, -28.25, -26.11, -16.92, -19.96, 0.000, 0.000, 0.000, 20:49:24.575, 1541900964575
7, -18.04, -26.58, -21.37, -20.70, -28.43, -26.17, -17.01, -20.23, 0.000, 0.000, 0.000, 20:49:24.575, 1541900964575
8, -17.93, -26.73, -21.30, -20.88, -28.32, -26.06, -17.08, -19.92, 0.000, 0.000, 0.000, 20:49:24.575, 1541900964575
9, -17.93, -26.71, -21.26, -20.85, -28.45, -26.13, -17.19, -19.74, 0.000, 0.000, 0.000, 20:49:24.576, 1541900964576
10, -17.86, -26.69, -21.55, -21.01, -28.57, -26.35, -16.94, -19.85, 0.000, 0.000, 0.000, 20:49:24.576, 1541900964576
11, -18.02, -26.87, -21.61, -20.88, -28.32, -26.11, -16.85, -19.80, 0.000, 0.000, 0.000, 20:49:24.576, 1541900964576
12, -17.93, -26.93, -21.48, -20.76, -28.30, -25.95, -17.01, -19.85, 0.000, 0.000, 0.000, 20:49:24.576, 1541900964576
13, -17.86, -26.78, -21.50, -20.85, -28.48, -26.11, -17.08, -19.69, 0.000, 0.000, 0.000, 20:49:24.577, 1541900964577
14, -18.08, -26.91, -21.59, -20.72, -28.36, -26.06, -17.03, -19.92, 0.000, 0.000, 0.000, 20:49:24.577, 1541900964577
15, -18.13, -26.78, -21.35, -20.94, -28.30, -26.04, -16.96, -20.00, 0.030, 0.962, 0.276, 20:49:24.577, 1541900964577
16, -18.08, -26.98, -21.39, -20.94, -28.43, -25.95, -16.94, -19.83, 0.000, 0.000, 0.000, 20:49:24.577, 1541900964577
17, -17.81, -26.98, -21.70, -20.88, -28.39, -26.08, -16.79, -19.67, 0.000, 0.000, 0.000, 20:49:24.577, 1541900964577
18, -17.90, -26.84, -21.37, -20.94, -28.14, -26.20, -16.76, -19.80, 0.000, 0.000, 0.000, 20:49:24.578, 1541900964578
19, -17.88, -26.51, -21.26, -20.99, -28.19, -26.33, -16.72, -19.78, 0.000, 0.000, 0.000, 20:49:24.578, 1541900964578
20, -17.75, -26.73, -21.41, -21.06, -28.30, -26.51, -16.67, -19.78, 0.000, 0.000, 0.000, 20:49:24.578, 1541900964578
21, -17.81, -26.78, -21.55, -20.88, -28.50, -26.06, -16.79, -20.09, 0.000, 0.000, 0.000, 20:49:24.578, 1541900964578
22, -17.95, -26.84, -21.50, -20.76, -28.54, -26.15, -17.08, -20.14, 0.000, 0.000, 0.000, 20:49:24.578, 1541900964578
23, -17.88, -26.76, -21.26, -20.63, -28.36, -26.24, -16.96, -19.89, 0.000, 0.000, 0.000, 20:49:24.578, 1541900964578
24, -17.86, -26.69, -21.44, -20.83, -28.30, -26.24, -16.74, -19.69, 0.032, 0.964, 0.278, 20:49:24.579, 1541900964579
25, -17.90, -26.78, -21.50, -20.92, -28.48, -26.29, -17.01, -19.58, 0.000, 0.000, 0.000, 20:49:24.579, 1541900964579
26, -17.95, -26.82, -21.26, -20.99, -28.36, -26.31, -17.01, -19.69, 0.000, 0.000, 0.000, 20:49:24.579, 1541900964579
27, -17.81, -26.69, -21.39, -20.63, -28.10, -26.31, -17.01, -19.80, 0.000, 0.000, 0.000, 20:49:24.579, 1541900964579
28, -17.90, -26.64, -21.48, -20.65, -28.10, -26.17, -17.12, -19.62, 0.000, 0.000, 0.000, 20:49:24.579, 1541900964579
29, -17.81, -26.55, -21.61, -21.08, -28.16, -26.06, -16.81, -19.69, 0.000, 0.000, 0.000, 20:49:24.579, 1541900964579
30, -17.88, -26.76, -21.55, -20.92, -28.10, -26.15, -16.92, -19.83, 0.000, 0.000, 0.000, 20:49:24.580, 1541900964580
31, -17.95, -27.07, -21.32, -20.83, -28.19, -26.42, -17.12, -20.05, 0.000, 0.000, 0.000, 20:49:24.580, 1541900964580
32, -17.86, -26.89, -21.44, -20.92, -28.32, -26.13, -17.03, -19.89, 0.000, 0.000, 0.000, 20:49:24.580, 1541900964580
33, -17.93, -26.76, -21.57, -21.14, -28.19, -26.13, -17.01, -20.05, 0.000, 0.000, 0.000, 20:49:24.580, 1541900964580
34, -18.02, -26.69, -21.44, -20.85, -28.14, -26.22, -16.85, -19.87, 0.032, 0.972, 0.282, 20:49:24.580, 1541900964580
35, -18.04, -27.02, -21.48, -20.99, -28.23, -26.46, -16.90, -19.71, 0.000, 0.000, 0.000, 20:49:24.580, 1541900964580
36, -17.97, -26.89, -21.30, -20.94, -28.39, -26.20, -16.90, -19.89, 0.000, 0.000, 0.000, 20:49:24.581, 1541900964581
37, -18.13, -26.58, -21.37, -21.03, -28.41, -26.20, -16.90, -19.76, 0.000, 0.000, 0.000, 20:49:24.581, 1541900964581
38, -18.17, -26.62, -21.28, -21.03, -28.25, -26.20, -17.03, -19.87, 0.000, 0.000, 0.000, 20:49:24.581, 1541900964581
39, -18.08, -26.80, -21.59, -20.99, -28.19, -26.24, -16.74, -19.80, 0.000, 0.000, 0.000, 20:49:24.581, 1541900964581
40, -17.72, -26.91, -21.61, -20.97, -28.30, -26.33, -16.83, -19.85, 0.000, 0.000, 0.000, 20:49:24.581, 1541900964581
41, -17.90, -26.78, -21.44, -20.97, -28.45, -26.11, -16.72, -19.85, 0.000, 0.000, 0.000, 20:49:24.582, 1541900964582
42, -17.86, -26.46, -21.41, -20.72, -28.41, -26.02, -16.58, -19.71, 0.000, 0.000, 0.000, 20:49:24.582, 1541900964582
43, -17.86, -26.71, -21.48, -20.65, -28.41, -25.86, -16.85, -19.94, 0.000, 0.000, 0.000, 20:49:24.582, 1541900964582
44, -17.86, -26.64, -21.39, -20.88, -28.57, -26.00, -16.96, -19.78, 0.034, 0.962, 0.276, 20:49:24.582, 1541900964582
45, -18.02, -26.73, -21.30, -20.70, -28.30, -26.08, -16.90, -19.60, 0.000, 0.000, 0.000, 20:49:24.583, 1541900964583
46, -18.06, -26.73, -21.48, -20.92, -28.32, -26.20, -16.96, -19.65, 0.000, 0.000, 0.000, 20:49:24.584, 1541900964584
47, -17.93, -26.80, -21.35, -21.06, -28.36, -26.49, -16.79, -19.98, 0.000, 0.000, 0.000, 20:49:24.586, 1541900964586
48, -18.13, -26.73, -21.57, -20.99, -28.43, -26.13, -16.70, -19.92, 0.000, 0.000, 0.000, 20:49:24.587, 1541900964587
49, -17.99, -26.58, -21.50, -20.94, -28.43, -26.20, -16.81, -19.96, 0.000, 0.000, 0.000, 20:49:24.588, 1541900964588
50, -18.13, -26.58, -21.39, -20.97, -28.45, -26.15, -16.74, -19.80, 0.000, 0.000, 0.000, 20:49:24.588, 1541900964588
51, -18.31, -26.69, -21.39, -20.61, -28.36, -26.17, -16.72, -19.76, 0.000, 0.000, 0.000, 20:49:24.589, 1541900964589
52, -18.17, -26.64, -21.48, -20.65, -28.36, -26.17, -16.94, -19.92, 0.000, 0.000, 0.000, 20:49:24.589, 1541900964589
53, -17.97, -26.58, -21.37, -20.99, -28.50, -26.20, -17.12, -19.74, 0.000, 0.000, 0.000, 20:49:24.589, 1541900964589
54, -17.90, -26.78, -21.39, -20.88, -28.48, -26.15, -17.05, -19.80, 0.032, 0.968, 0.276, 20:49:24.589, 1541900964589
55, -18.10, -26.80, -21.55, -20.88, -28.36, -26.13, -16.94, -20.21, 0.000, 0.000, 0.000, 20:49:24.590, 1541900964590
56, -18.40, -26.73, -21.52, -20.99, -28.16, -26.13, -16.96, -20.32, 0.000, 0.000, 0.000, 20:49:24.590, 1541900964590
57, -18.37, -26.76, -21.70, -20.90, -28.19, -26.08, -16.90, -20.05, 0.000, 0.000, 0.000, 20:49:24.590, 1541900964590
58, -18.19, -26.69, -21.70, -20.72, -28.21, -26.13, -16.79, -19.94, 0.000, 0.000, 0.000, 20:49:24.590, 1541900964590
59, -18.08, -26.53, -21.44, -20.88, -28.14, -26.06, -16.85, -19.87, 0.000, 0.000, 0.000, 20:49:24.591, 1541900964591
60, -18.04, -26.73, -21.32, -20.81, -28.36, -26.11, -16.83, -19.60, 0.000, 0.000, 0.000, 20:49:24.591, 1541900964591
61, -18.08, -26.84, -21.39, -20.65, -28.43, -26.04, -16.92, -19.60, 0.000, 0.000, 0.000, 20:49:24.591, 1541900964591
62, -18.08, -26.89, -21.59, -20.85, -28.21, -26.13, -16.85, -19.96, 0.000, 0.000, 0.000, 20:49:24.591, 1541900964591
63, -17.84, -26.58, -21.44, -20.76, -28.36, -25.97, -16.92, -19.71, 0.032, 0.962, 0.272, 20:49:24.591, 1541900964591
64, -17.81, -26.78, -21.50, -20.74, -28.48, -26.17, -17.01, -19.87, 0.000, 0.000, 0.000, 20:49:24.592, 1541900964592
65, -17.86, -26.96, -21.50, -20.72, -28.23, -26.31, -16.92, -20.03, 0.000, 0.000, 0.000, 20:49:24.592, 1541900964592
66, -18.10, -27.07, -21.55, -20.65, -28.21, -26.17, -16.92, -19.92, 0.000, 0.000, 0.000, 20:49:24.592, 1541900964592
67, -17.95, -26.98, -21.52, -20.81, -28.32, -26.15, -17.08, -19.76, 0.000, 0.000, 0.000, 20:49:24.592, 1541900964592
68, -18.04, -26.84, -21.66, -21.10, -28.30, -26.24, -17.03, -19.80, 0.000, 0.000, 0.000, 20:49:24.592, 1541900964592
69, -18.04, -26.76, -21.48, -21.17, -28.34, -26.08, -16.96, -19.80, 0.000, 0.000, 0.000, 20:49:24.592, 1541900964592
70, -17.90, -26.91, -21.28, -20.94, -28.36, -26.24, -16.96, -19.76, 0.000, 0.000, 0.000, 20:49:24.592, 1541900964592
71, -18.02, -27.05, -21.41, -20.83, -28.43, -26.33, -17.10, -19.85, 0.000, 0.000, 0.000, 20:49:24.592, 1541900964592
72, -17.99, -26.60, -21.55, -20.83, -28.59, -25.97, -16.83, -19.87, 0.000, 0.000, 0.000, 20:49:24.592, 1541900964592
73, -17.95, -26.44, -21.44, -20.70, -28.52, -26.00, -16.76, -19.92, 0.024, 0.964, 0.274, 20:49:24.593, 1541900964593
74, -17.88, -26.82, -21.55, -20.85, -28.25, -26.20, -17.10, -19.85, 0.000, 0.000, 0.000, 20:49:24.593, 1541900964593
75, -17.93, -26.80, -21.48, -21.03, -28.27, -26.24, -17.10, -19.78, 0.000, 0.000, 0.000, 20:49:24.593, 1541900964593
76, -17.79, -26.73, -21.59, -20.88, -28.41, -26.02, -16.81, -19.98, 0.000, 0.000, 0.000, 20:49:24.593, 1541900964593
77, -17.81, -26.87, -21.59, -20.79, -28.19, -26.13, -16.83, -19.94, 0.000, 0.000, 0.000, 20:49:24.593, 1541900964593
78, -17.90, -26.73, -21.39, -20.94, -28.21, -26.35, -16.92, -19.65, 0.000, 0.000, 0.000, 20:49:24.593, 1541900964593
79, -17.95, -26.71, -21.55, -21.21, -28.27, -26.24, -16.96, -19.69, 0.000, 0.000, 0.000, 20:49:24.593, 1541900964593
80, -18.06, -27.00, -21.82, -21.06, -28.48, -25.91, -16.81, -19.98, 0.000, 0.000, 0.000, 20:49:24.593, 1541900964593
81, -18.10, -26.91, -21.61, -20.74, -28.43, -26.06, -16.83, -19.94, 0.000, 0.000, 0.000, 20:49:24.593, 1541900964593
82, -18.31, -26.80, -21.48, -20.61, -28.59, -25.97, -16.72, -19.87, 0.000, 0.000, 0.000, 20:49:24.594, 1541900964594
83, -18.24, -26.91, -21.37, -20.76, -28.39, -26.02, -16.81, -20.05, 0.030, 0.964, 0.274, 20:49:24.594, 1541900964594
84, -18.13, -26.80, -21.35, -20.99, -28.30, -26.17, -16.74, -19.98, 0.000, 0.000, 0.000, 20:49:24.594, 1541900964594
85, -18.15, -26.76, -21.41, -20.83, -28.52, -26.29, -16.90, -20.03, 0.000, 0.000, 0.000, 20:49:24.594, 1541900964594
86, -18.24, -26.62, -21.64, -20.72, -28.52, -26.17, -16.90, -19.83, 0.000, 0.000, 0.000, 20:49:24.594, 1541900964594
87, -18.08, -26.67, -21.55, -20.74, -28.27, -25.93, -16.85, -19.67, 0.000, 0.000, 0.000, 20:49:24.594, 1541900964594
88, -17.81, -26.76, -21.59, -20.74, -28.32, -26.00, -16.88, -19.54, 0.000, 0.000, 0.000, 20:49:24.594, 1541900964594
89, -17.81, -26.98, -21.44, -20.99, -28.21, -26.13, -16.85, -19.94, 0.000, 0.000, 0.000, 20:49:24.594, 1541900964594
90, -17.84, -26.76, -21.32, -21.03, -28.30, -26.29, -16.99, -20.03, 0.000, 0.000, 0.000, 20:49:25.029, 1541900965029
91, -17.90, -27.00, -21.14, -21.01, -28.32, -26.29, -16.85, -19.80, 0.000, 0.000, 0.000, 20:49:25.029, 1541900965029
92, -17.84, -26.76, -21.48, -21.12, -28.19, -26.06, -16.90, -19.87, 0.000, 0.000, 0.000, 20:49:25.030, 1541900965030
93, -18.04, -26.73, -21.55, -21.06, -28.41, -25.91, -17.01, -19.98, 0.028, 0.970, 0.286, 20:49:25.030, 1541900965030
94, -18.08, -26.69, -21.32, -21.06, -28.32, -26.20, -16.90, -19.98, 0.000, 0.000, 0.000, 20:49:25.030, 1541900965030
95, -18.02, -26.71, -21.52, -20.76, -27.96, -26.20, -17.08, -19.74, 0.000, 0.000, 0.000, 20:49:25.031, 1541900965031
96, -17.93, -27.02, -21.59, -20.88, -28.14, -26.11, -16.99, -19.96, 0.000, 0.000, 0.000, 20:49:25.031, 1541900965031
97, -17.97, -26.98, -21.73, -20.79, -28.43, -26.06, -17.01, -19.96, 0.000, 0.000, 0.000, 20:49:25.031, 1541900965031
98, -17.81, -26.64, -21.50, -20.81, -28.32, -26.08, -16.92, -19.80, 0.000, 0.000, 0.000, 20:49:25.031, 1541900965031
99, -17.93, -26.71, -21.41, -20.81, -28.30, -26.24, -16.83, -19.85, 0.000, 0.000, 0.000, 20:49:25.032, 1541900965032
100, -18.02, -26.89, -21.52, -21.06, -28.21, -26.17, -16.96, -19.71, 0.000, 0.000, 0.000, 20:49:25.032, 1541900965032
101, -18.06, -26.80, -21.52, -20.81, -28.05, -26.22, -16.79, -19.71, 0.000, 0.000, 0.000, 20:49:25.032, 1541900965032
102, -17.95, -26.71, -21.44, -20.79, -28.23, -26.20, -16.79, -19.87, 0.000, 0.000, 0.000, 20:49:25.033, 1541900965033
103, -18.08, -26.62, -21.50, -20.83, -28.36, -26.02, -16.94, -19.85, 0.030, 0.964, 0.282, 20:49:25.033, 1541900965033
104, -17.99, -26.58, -21.55, -20.83, -28.14, -25.95, -16.79, -19.87, 0.000, 0.000, 0.000, 20:49:25.034, 1541900965034
105, -17.81, -26.58, -21.52, -21.17, -28.48, -25.93, -16.85, -19.92, 0.000, 0.000, 0.000, 20:49:25.034, 1541900965034
106, -17.93, -27.02, -21.55, -20.76, -28.39, -25.75, -16.92, -19.80, 0.000, 0.000, 0.000, 20:49:25.034, 1541900965034
107, -18.22, -27.05, -21.52, -20.88, -28.25, -25.95, -17.05, -19.94, 0.000, 0.000, 0.000, 20:49:25.034, 1541900965034
108, -18.31, -26.91, -21.39, -20.97, -28.25, -26.02, -17.19, -19.83, 0.000, 0.000, 0.000, 20:49:25.035, 1541900965035
109, -18.10, -26.82, -21.52, -20.83, -28.36, -26.31, -17.12, -19.83, 0.000, 0.000, 0.000, 20:49:25.035, 1541900965035
110, -17.93, -26.64, -21.48, -20.85, -28.41, -26.08, -16.88, -19.87, 0.000, 0.000, 0.000, 20:49:25.035, 1541900965035
111, -17.81, -26.62, -21.39, -20.70, -28.48, -26.04, -17.05, -19.78, 0.000, 0.000, 0.000, 20:49:25.035, 1541900965035
112, -17.86, -26.73, -21.37, -21.03, -28.68, -26.02, -16.74, -19.71, 0.028, 0.964, 0.280, 20:49:25.036, 1541900965036
113, -18.10, -26.91, -21.44, -20.94, -28.54, -26.08, -16.76, -19.92, 0.000, 0.000, 0.000, 20:49:25.036, 1541900965036
114, -18.02, -26.73, -21.48, -20.94, -28.54, -26.13, -17.01, -19.78, 0.000, 0.000, 0.000, 20:49:25.036, 1541900965036
115, -17.86, -26.64, -21.39, -20.88, -28.52, -26.02, -16.94, -19.87, 0.000, 0.000, 0.000, 20:49:25.036, 1541900965036
116, -17.84, -26.67, -21.55, -20.76, -28.27, -26.11, -16.92, -19.92, 0.000, 0.000, 0.000, 20:49:25.037, 1541900965037
117, -17.77, -26.76, -21.52, -20.83, -28.05, -26.15, -16.81, -20.05, 0.000, 0.000, 0.000, 20:49:25.037, 1541900965037
118, -18.04, -26.80, -21.55, -20.94, -28.30, -26.11, -16.92, -20.07, 0.000, 0.000, 0.000, 20:49:25.037, 1541900965037
119, -18.37, -26.53, -21.39, -21.06, -28.25, -26.13, -17.01, -20.12, 0.000, 0.000, 0.000, 20:49:25.037, 1541900965037
120, -18.13, -26.73, -21.57, -21.10, -28.36, -26.04, -16.90, -20.09, 0.000, 0.000, 0.000, 20:49:25.038, 1541900965038
121, -17.88, -26.76, -21.39, -20.88, -28.34, -26.15, -17.03, -20.03, 0.000, 0.000, 0.000, 20:49:25.039, 1541900965039
122, -17.93, -26.64, -21.55, -20.83, -28.25, -26.40, -17.30, -20.07, 0.028, 0.966, 0.276, 20:49:25.040, 1541900965040
123, -18.10, -26.84, -21.55, -21.01, -28.43, -26.17, -17.01, -20.18, 0.000, 0.000, 0.000, 20:49:25.041, 1541900965041
124, -18.06, -26.84, -21.70, -20.99, -28.43, -26.00, -16.88, -19.96, 0.000, 0.000, 0.000, 20:49:25.041, 1541900965041
125, -18.10, -26.80, -21.48, -20.94, -28.41, -25.95, -17.05, -19.92, 0.000, 0.000, 0.000, 20:49:25.042, 1541900965042
126, -18.04, -26.76, -21.48, -20.81, -28.41, -25.77, -17.12, -19.71, 0.000, 0.000, 0.000, 20:49:25.042, 1541900965042
127, -18.02, -26.73, -21.55, -21.06, -28.52, -25.82, -16.85, -19.58, 0.000, 0.000, 0.000, 20:49:25.042, 1541900965042
128, -17.97, -26.67, -21.37, -21.21, -28.30, -26.04, -17.03, -19.62, 0.000, 0.000, 0.000, 20:49:25.042, 1541900965042
129, -17.93, -26.67, -21.50, -21.10, -28.19, -26.24, -17.03, -19.92, 0.000, 0.000, 0.000, 20:49:25.043, 1541900965043
130, -17.81, -26.76, -21.66, -20.79, -28.27, -26.17, -16.94, -20.09, 0.000, 0.000, 0.000, 20:49:25.043, 1541900965043
131, -17.93, -26.71, -21.61, -20.92, -28.52, -26.02, -17.08, -19.83, 0.000, 0.000, 0.000, 20:49:25.043, 1541900965043
132, -18.02, -26.80, -21.57, -20.99, -28.52, -25.95, -16.92, -19.71, 0.030, 0.966, 0.274, 20:49:25.043, 1541900965043
133, -17.86, -26.91, -21.59, -21.03, -28.32, -26.02, -16.63, -19.60, 0.000, 0.000, 0.000, 20:49:25.044, 1541900965044
134, -17.79, -26.80, -21.57, -20.99, -28.32, -26.08, -16.85, -19.80, 0.000, 0.000, 0.000, 20:49:25.044, 1541900965044
135, -17.97, -26.76, -21.48, -20.99, -28.32, -26.20, -16.92, -19.80, 0.000, 0.000, 0.000, 20:49:25.044, 1541900965044
136, -18.19, -26.62, -21.52, -20.88, -28.43, -26.02, -17.08, -19.65, 0.000, 0.000, 0.000, 20:49:25.045, 1541900965045
137, -18.04, -26.46, -21.37, -20.81, -28.16, -26.08, -17.01, -19.83, 0.000, 0.000, 0.000, 20:49:25.045, 1541900965045
138, -18.06, -26.51, -21.21, -20.72, -28.32, -25.95, -16.81, -19.87, 0.000, 0.000, 0.000, 20:49:25.045, 1541900965045
139, -18.04, -26.51, -21.46, -20.99, -28.36, -26.13, -16.96, -20.05, 0.000, 0.000, 0.000, 20:49:25.045, 1541900965045
140, -17.95, -26.51, -21.59, -20.94, -28.19, -26.02, -17.14, -20.09, 0.000, 0.000, 0.000, 20:49:25.046, 1541900965046
141, -17.77, -26.78, -21.55, -20.83, -28.21, -26.24, -16.94, -20.09, 0.000, 0.000, 0.000, 20:49:25.046, 1541900965046
142, -17.75, -26.69, -21.48, -20.72, -28.27, -26.04, -16.79, -20.05, 0.030, 0.966, 0.280, 20:49:25.046, 1541900965046
143, -17.90, -26.84, -21.68, -20.88, -28.19, -26.06, -16.96, -19.94, 0.000, 0.000, 0.000, 20:49:25.046, 1541900965046
144, -18.13, -26.76, -21.70, -20.72, -28.19, -26.13, -17.12, -19.92, 0.000, 0.000, 0.000, 20:49:25.047, 1541900965047
145, -17.93, -26.71, -21.68, -20.79, -28.07, -26.26, -16.92, -20.05, 0.000, 0.000, 0.000, 20:49:25.047, 1541900965047
146, -17.81, -26.67, -21.44, -20.88, -28.30, -26.13, -16.88, -19.87, 0.000, 0.000, 0.000, 20:49:25.047, 1541900965047
147, -17.93, -26.84, -21.44, -21.19, -28.43, -26.35, -16.92, -19.62, 0.000, 0.000, 0.000, 20:49:25.049, 1541900965049
148, -18.02, -26.71, -21.59, -21.17, -28.48, -26.17, -16.79, -19.74, 0.000, 0.000, 0.000, 20:49:25.049, 1541900965049
149, -18.08, -26.76, -21.64, -20.99, -28.45, -26.08, -16.72, -19.89, 0.000, 0.000, 0.000, 20:49:25.050, 1541900965050
150, -18.06, -26.84, -21.48, -20.79, -28.50, -26.06, -16.74, -19.67, 0.000, 0.000, 0.000, 20:49:25.050, 1541900965050
151, -17.99, -26.73, -21.46, -20.92, -28.43, -26.08, -16.81, -19.58, 0.000, 0.000, 0.000, 20:49:25.052, 1541900965052
152, -18.02, -26.62, -21.44, -20.72, -28.19, -26.11, -16.74, -19.62, 0.022, 0.968, 0.276, 20:49:25.053, 1541900965053
153, -17.97, -26.69, -21.44, -20.50, -28.34, -26.24, -16.72, -19.83, 0.000, 0.000, 0.000, 20:49:25.053, 1541900965053
154, -17.70, -26.80, -21.39, -20.63, -28.59, -26.08, -16.74, -20.09, 0.000, 0.000, 0.000, 20:49:25.054, 1541900965054
155, -17.93, -26.62, -21.39, -20.76, -28.52, -26.13, -16.88, -20.09, 0.000, 0.000, 0.000, 20:49:25.054, 1541900965054
156, -17.84, -26.58, -21.37, -20.92, -28.45, -26.20, -17.10, -19.96, 0.000, 0.000, 0.000, 20:49:25.054, 1541900965054
157, -17.84, -26.67, -21.30, -20.99, -28.23, -26.02, -17.17, -19.65, 0.000, 0.000, 0.000, 20:49:25.054, 1541900965054
158, -18.02, -26.69, -21.59, -20.70, -28.27, -25.88, -16.99, -19.94, 0.000, 0.000, 0.000, 20:49:25.054, 1541900965054
159, -17.79, -26.73, -21.50, -20.65, -28.41, -26.08, -17.08, -20.14, 0.000, 0.000, 0.000, 20:49:25.054, 1541900965054
160, -17.79, -26.80, -21.21, -20.94, -28.43, -26.20, -17.01, -19.76, 0.000, 0.000, 0.000, 20:49:25.054, 1541900965054
161, -17.72, -26.84, -21.23, -21.14, -28.36, -26.02, -16.79, -19.71, 0.028, 0.964, 0.276, 20:49:25.054, 1541900965054
162, -17.77, -27.00, -21.57, -21.03, -28.07, -26.02, -16.96, -19.67, 0.000, 0.000, 0.000, 20:49:25.054, 1541900965054
163, -18.02, -26.87, -21.55, -21.10, -28.03, -26.08, -16.92, -19.98, 0.000, 0.000, 0.000, 20:49:25.055, 1541900965055
164, -17.70, -26.60, -21.55, -20.90, -28.07, -26.17, -17.08, -19.62, 0.000, 0.000, 0.000, 20:49:25.055, 1541900965055
165, -17.81, -26.69, -21.59, -20.83, -28.32, -26.06, -16.96, -19.69, 0.000, 0.000, 0.000, 20:49:25.055, 1541900965055
166, -17.97, -26.87, -21.35, -20.88, -28.41, -26.20, -16.92, -19.69, 0.000, 0.000, 0.000, 20:49:25.055, 1541900965055
167, -17.93, -26.80, -21.46, -20.88, -28.36, -26.13, -16.85, -19.80, 0.000, 0.000, 0.000, 20:49:25.055, 1541900965055
168, -17.86, -26.89, -21.59, -20.70, -28.57, -26.31, -16.96, -19.80, 0.000, 0.000, 0.000, 20:49:25.055, 1541900965055
169, -17.90, -26.84, -21.70, -20.85, -28.34, -26.29, -16.74, -19.92, 0.000, 0.000, 0.000, 20:49:25.055, 1541900965055
170, -17.84, -26.80, -21.26, -20.94, -28.30, -25.95, -16.90, -19.87, 0.000, 0.000, 0.000, 20:49:25.055, 1541900965055
171, -18.06, -26.76, -21.44, -20.92, -28.36, -26.06, -17.10, -19.65, 0.026, 0.962, 0.276, 20:49:25.055, 1541900965055
172, -17.93, -26.82, -21.44, -21.01, -28.34, -26.06, -16.94, -19.78, 0.000, 0.000, 0.000, 20:49:25.055, 1541900965055
173, -17.99, -26.73, -21.37, -21.14, -28.30, -25.93, -17.01, -19.96, 0.000, 0.000, 0.000, 20:49:25.055, 1541900965055
174, -18.10, -26.69, -21.37, -20.92, -28.32, -26.08, -16.83, -19.87, 0.000, 0.000, 0.000, 20:49:25.056, 1541900965056
175, -17.97, -26.80, -21.39, -20.70, -28.39, -26.15, -16.67, -19.76, 0.000, 0.000, 0.000, 20:49:25.056, 1541900965056
176, -17.97, -26.71, -21.55, -20.54, -28.16, -26.06, -16.79, -19.92, 0.000, 0.000, 0.000, 20:49:25.056, 1541900965056
177, -17.90, -26.51, -21.32, -20.63, -28.19, -26.04, -16.92, -20.05, 0.000, 0.000, 0.000, 20:49:25.056, 1541900965056
178, -17.72, -26.64, -21.30, -21.06, -28.36, -26.06, -16.94, -19.98, 0.000, 0.000, 0.000, 20:49:25.056, 1541900965056
179, -17.75, -26.55, -21.64, -21.10, -28.41, -26.22, -16.96, -20.14, 0.000, 0.000, 0.000, 20:49:25.056, 1541900965056
180, -18.06, -26.76, -21.84, -20.94, -28.34, -26.35, -17.05, -19.89, 0.000, 0.000, 0.000, 20:49:25.057, 1541900965057
181, -17.97, -26.87, -21.57, -20.83, -28.25, -26.35, -17.05, -19.65, 0.032, 0.966, 0.276, 20:49:25.057, 1541900965057
182, -17.79, -26.76, -21.26, -21.06, -28.10, -26.38, -16.90, -19.65, 0.000, 0.000, 0.000, 20:49:25.057, 1541900965057
183, -17.68, -26.84, -21.37, -21.14, -28.30, -26.29, -16.96, -19.51, 0.000, 0.000, 0.000, 20:49:25.057, 1541900965057
184, -17.95, -27.05, -21.55, -21.17, -28.10, -26.29, -17.05, -19.69, 0.000, 0.000, 0.000, 20:49:25.058, 1541900965058
185, -17.95, -26.64, -21.64, -20.99, -28.43, -26.17, -17.12, -19.56, 0.000, 0.000, 0.000, 20:49:25.058, 1541900965058
186, -17.93, -26.73, -21.55, -20.83, -28.48, -26.15, -17.17, -19.76, 0.000, 0.000, 0.000, 20:49:25.058, 1541900965058
187, -18.02, -26.93, -21.55, -20.61, -28.32, -26.17, -16.92, -19.65, 0.000, 0.000, 0.000, 20:49:25.058, 1541900965058
188, -17.97, -26.73, -21.57, -20.94, -28.41, -26.06, -16.85, -19.71, 0.000, 0.000, 0.000, 20:49:25.058, 1541900965058
189, -18.04, -26.71, -21.48, -21.23, -28.25, -26.17, -16.94, -19.94, 0.000, 0.000, 0.000, 20:49:25.058, 1541900965058
190, -17.99, -26.69, -21.46, -21.06, -28.12, -25.91, -17.03, -20.14, 0.000, 0.000, 0.000, 20:49:25.058, 1541900965058
191, -17.93, -26.69, -21.32, -20.76, -28.30, -25.95, -16.94, -19.83, 0.036, 0.962, 0.278, 20:49:25.059, 1541900965059
192, -17.79, -26.53, -21.32, -20.83, -28.23, -26.26, -16.94, -19.76, 0.000, 0.000, 0.000, 20:49:25.059, 1541900965059
193, -18.15, -26.71, -21.50, -21.06, -28.23, -26.29, -16.96, -19.94, 0.000, 0.000, 0.000, 20:49:25.059, 1541900965059
194, -18.19, -26.71, -21.70, -20.92, -28.36, -26.15, -16.96, -19.94, 0.000, 0.000, 0.000, 20:49:25.059, 1541900965059
195, -17.81, -26.51, -21.37, -20.61, -28.30, -26.02, -17.08, -19.94, 0.000, 0.000, 0.000, 20:49:25.059, 1541900965059
196, -17.86, -26.44, -21.41, -20.83, -28.34, -26.20, -16.76, -19.83, 0.000, 0.000, 0.000, 20:49:25.059, 1541900965059
197, -17.95, -26.53, -21.44, -20.85, -28.25, -26.20, -16.92, -19.80, 0.000, 0.000, 0.000, 20:49:25.059, 1541900965059
198, -17.93, -26.62, -21.61, -20.94, -28.12, -26.17, -16.96, -19.67, 0.000, 0.000, 0.000, 20:49:25.059, 1541900965059
199, -18.02, -26.91, -21.41, -20.99, -28.39, -26.02, -16.90, -19.87, 0.000, 0.000, 0.000, 20:49:25.059, 1541900965059
200, -17.70, -26.96, -21.37, -20.92, -28.45, -25.86, -16.96, -19.71, 0.000, 0.000, 0.000, 20:49:25.059, 1541900965059
201, -17.75, -26.64, -21.44, -20.92, -28.32, -26.17, -16.94, -19.85, 0.026, 0.978, 0.278, 20:49:25.059, 1541900965059
202, -17.79, -26.73, -21.32, -20.85, -28.07, -26.13, -16.94, -19.94, 0.000, 0.000, 0.000, 20:49:25.059, 1541900965059
203, -17.93, -26.67, -21.61, -20.94, -28.01, -26.33, -16.99, -19.69, 0.000, 0.000, 0.000, 20:49:25.060, 1541900965060
204, -18.02, -26.62, -21.61, -21.01, -28.32, -26.29, -16.96, -19.65, 0.000, 0.000, 0.000, 20:49:25.060, 1541900965060
205, -18.08, -26.76, -21.17, -20.94, -28.50, -26.33, -16.90, -19.69, 0.000, 0.000, 0.000, 20:49:25.060, 1541900965060
206, -18.02, -26.73, -21.21, -21.03, -28.32, -26.46, -17.05, -19.87, 0.000, 0.000, 0.000, 20:49:25.060, 1541900965060
207, -18.13, -26.62, -21.46, -21.03, -28.23, -26.17, -17.01, -19.78, 0.000, 0.000, 0.000, 20:49:25.060, 1541900965060
208, -18.08, -26.64, -21.48, -20.92, -28.34, -26.13, -17.23, -19.87, 0.000, 0.000, 0.000, 20:49:25.060, 1541900965060
209, -18.15, -26.82, -21.12, -20.99, -28.48, -26.06, -17.12, -19.76, 0.000, 0.000, 0.000, 20:49:25.060, 1541900965060
210, -18.15, -26.98, -21.48, -20.97, -28.41, -26.02, -16.79, -19.65, 0.036, 0.982, 0.324, 20:49:25.509, 1541900965509
211, -18.02, -26.96, -21.70, -20.94, -28.32, -26.11, -16.79, -19.76, 0.000, 0.000, 0.000, 20:49:25.509, 1541900965509
212, -17.95, -27.05, -21.68, -20.90, -28.34, -26.51, -16.81, -19.98, 0.000, 0.000, 0.000, 20:49:25.509, 1541900965509
213, -17.90, -26.87, -21.39, -20.94, -28.48, -26.17, -17.05, -19.94, 0.000, 0.000, 0.000, 20:49:25.510, 1541900965510
214, -18.04, -26.53, -21.50, -20.88, -28.30, -25.95, -17.23, -19.92, 0.000, 0.000, 0.000, 20:49:25.510, 1541900965510
215, -18.24, -26.73, -21.52, -20.92, -28.19, -26.06, -17.10, -19.80, 0.000, 0.000, 0.000, 20:49:25.510, 1541900965510
216, -18.10, -26.98, -21.66, -21.10, -28.19, -26.17, -16.94, -19.65, 0.000, 0.000, 0.000, 20:49:25.510, 1541900965510
217, -18.10, -26.73, -21.55, -21.01, -28.21, -26.13, -16.92, -19.89, 0.000, 0.000, 0.000, 20:49:25.510, 1541900965510
218, -17.97, -26.87, -21.52, -20.92, -28.32, -26.02, -16.96, -19.89, 0.000, 0.000, 0.000, 20:49:25.510, 1541900965510
219, -17.97, -26.87, -21.66, -21.06, -28.10, -26.00, -16.94, -19.98, 0.000, 0.000, 0.000, 20:49:25.510, 1541900965510
220, -18.10, -26.84, -21.35, -21.08, -28.03, -25.91, -17.01, -19.98, 0.030, 0.986, 0.314, 20:49:25.510, 1541900965510
221, -18.04, -26.71, -21.37, -20.92, -28.21, -25.75, -17.10, -19.87, 0.000, 0.000, 0.000, 20:49:25.510, 1541900965510
222, -18.15, -26.69, -21.30, -21.03, -28.21, -25.86, -16.96, -19.54, 0.000, 0.000, 0.000, 20:49:25.510, 1541900965510
223, -17.99, -26.64, -21.46, -20.99, -28.19, -25.97, -16.90, -19.83, 0.000, 0.000, 0.000, 20:49:25.510, 1541900965510
224, -17.97, -26.76, -21.55, -20.81, -28.52, -26.04, -16.92, -19.92, 0.000, 0.000, 0.000, 20:49:25.510, 1541900965510
225, -18.04, -26.58, -21.48, -21.12, -28.25, -26.11, -17.01, -19.83, 0.000, 0.000, 0.000, 20:49:25.511, 1541900965511
226, -17.81, -26.55, -21.55, -21.06, -28.14, -26.08, -16.96, -19.80, 0.000, 0.000, 0.000, 20:49:25.511, 1541900965511
227, -17.59, -26.42, -21.61, -20.92, -28.41, -26.13, -16.90, -19.87, 0.000, 0.000, 0.000, 20:49:25.511, 1541900965511
228, -17.70, -26.76, -21.66, -21.06, -28.36, -26.02, -16.81, -19.85, 0.000, 0.000, 0.000, 20:49:25.511, 1541900965511
229, -17.81, -26.78, -21.50, -20.99, -28.54, -25.77, -16.90, -19.58, 0.000, 0.000, 0.000, 20:49:25.511, 1541900965511
230, -17.93, -26.80, -21.48, -20.92, -28.54, -25.86, -17.03, -19.78, -0.010, 1.024, 0.268, 20:49:25.511, 1541900965511
231, -18.02, -26.76, -21.55, -20.92, -28.25, -25.79, -17.14, -19.92, 0.000, 0.000, 0.000, 20:49:25.511, 1541900965511
232, -17.90, -26.73, -21.55, -20.92, -28.25, -26.15, -17.03, -20.12, 0.000, 0.000, 0.000, 20:49:25.511, 1541900965511
233, -18.04, -26.80, -21.68, -21.06, -28.41, -26.17, -17.05, -19.92, 0.000, 0.000, 0.000, 20:49:25.511, 1541900965511
234, -17.99, -26.69, -21.66, -20.94, -28.30, -26.29, -16.96, -19.74, 0.000, 0.000, 0.000, 20:49:25.511, 1541900965511
235, -17.90, -26.76, -21.48, -20.92, -28.52, -25.86, -16.81, -19.94, 0.000, 0.000, 0.000, 20:49:25.511, 1541900965511
236, -17.97, -26.76, -21.37, -20.94, -28.39, -25.95, -17.08, -19.80, 0.000, 0.000, 0.000, 20:49:25.511, 1541900965511
237, -18.24, -26.53, -21.32, -20.72, -28.12, -26.26, -16.99, -19.60, 0.000, 0.000, 0.000, 20:49:25.513, 1541900965513
238, -18.13, -26.69, -21.44, -20.92, -28.23, -26.31, -17.12, -19.67, 0.000, 0.000, 0.000, 20:49:25.513, 1541900965513
239, -17.86, -26.96, -21.46, -21.01, -28.48, -26.11, -16.83, -20.03, 0.000, 0.000, 0.000, 20:49:25.513, 1541900965513
240, -18.08, -26.73, -21.50, -20.70, -28.41, -26.15, -16.81, -20.09, 0.006, 0.988, 0.290, 20:49:25.513, 1541900965513
241, -18.17, -26.71, -21.37, -20.65, -28.27, -26.15, -16.76, -19.94, 0.000, 0.000, 0.000, 20:49:25.513, 1541900965513
242, -17.95, -26.84, -21.28, -20.92, -28.07, -26.15, -16.63, -20.09, 0.000, 0.000, 0.000, 20:49:25.513, 1541900965513
243, -17.97, -26.76, -21.32, -20.88, -28.32, -26.31, -16.88, -19.80, 0.000, 0.000, 0.000, 20:49:25.513, 1541900965513
244, -17.99, -26.84, -21.21, -20.92, -28.48, -26.35, -16.88, -19.74, 0.000, 0.000, 0.000, 20:49:25.514, 1541900965514
245, -17.88, -26.76, -21.17, -21.08, -28.14, -26.08, -16.76, -19.71, 0.000, 0.000, 0.000, 20:49:25.514, 1541900965514
246, -17.86, -26.84, -21.44, -20.99, -28.34, -26.15, -16.88, -19.71, 0.000, 0.000, 0.000, 20:49:25.514, 1541900965514
247, -17.99, -26.91, -21.84, -20.88, -28.36, -26.31, -16.79, -19.80, 0.000, 0.000, 0.000, 20:49:25.514, 1541900965514
248, -17.93, -26.53, -21.70, -20.74, -28.32, -26.24, -16.90, -20.05, 0.000, 0.000, 0.000, 20:49:25.514, 1541900965514
249, -18.02, -26.58, -21.57, -20.76, -28.48, -26.17, -16.99, -20.12, 0.000, 0.000, 0.000, 20:49:25.514, 1541900965514
250, -18.13, -26.73, -21.59, -20.85, -28.50, -26.06, -16.83, -19.65, 0.000, 0.984, 0.328, 20:49:25.514, 1541900965514
251, -18.04, -26.69, -21.37, -21.03, -28.14, -26.11, -16.92, -19.60, 0.000, 0.000, 0.000, 20:49:25.514, 1541900965514
252, -17.90, -26.73, -21.35, -20.92, -28.36, -26.24, -16.96, -19.85, 0.000, 0.000, 0.000, 20:49:25.514, 1541900965514
253, -17.81, -26.82, -21.44, -20.99, -28.48, -26.17, -16.92, -19.94, 0.000, 0.000, 0.000, 20:49:25.514, 1541900965514
254, -17.93, -26.98, -21.64, -21.08, -28.48, -26.17, -16.81, -20.03, 0.000, 0.000, 0.000, 20:49:25.514, 1541900965514
255, -17.86, -27.07, -21.61, -21.03, -28.52, -26.22, -16.96, -19.94, 0.000, 0.000, 0.000, 20:49:25.514, 1541900965514
0, -18.08, -26.91, -21.55, -20.99, -28.59, -26.26, -16.85, -20.14, 0.000, 0.000, 0.000, 20:49:25.515, 1541900965515
1, -18.19, -26.60, -21.50, -20.99, -28.34, -26.31, -16.81, -19.92, 0.000, 0.000, 0.000, 20:49:25.515, 1541900965515
2, -18.19, -26.53, -21.46, -21.08, -28.48, -26.24, -16.81, -20.00, 0.000, 0.000, 0.000, 20:49:25.515, 1541900965515
3, -17.95, -26.49, -21.39, -20.99, -28.36, -26.22, -16.70, -19.94, 0.044, 0.982, 0.364, 20:49:25.515, 1541900965515
4, -18.26, -26.46, -21.41, -20.97, -28.43, -26.02, -17.01, -19.87, 0.000, 0.000, 0.000, 20:49:25.515, 1541900965515
5, -18.19, -26.53, -21.50, -21.01, -28.41, -26.13, -16.96, -19.80, 0.000, 0.000, 0.000, 20:49:25.515, 1541900965515
6, -17.84, -26.69, -21.39, -20.72, -28.39, -26.29, -16.99, -19.65, 0.000, 0.000, 0.000, 20:49:25.515, 1541900965515
7, -18.08, -26.60, -21.41, -20.70, -28.21, -26.20, -16.96, -19.76, 0.000, 0.000, 0.000, 20:49:25.515, 1541900965515
8, -17.95, -26.53, -21.46, -20.99, -28.27, -26.06, -16.96, -19.87, 0.000, 0.000, 0.000, 20:49:25.515, 1541900965515
9, -17.99, -26.51, -21.46, -21.14, -28.25, -26.08, -16.90, -19.89, 0.000, 0.000, 0.000, 20:49:25.516, 1541900965516
10, -18.06, -26.69, -21.41, -21.17, -28.10, -26.08, -16.83, -19.83, 0.000, 0.000, 0.000, 20:49:25.516, 1541900965516
11, -18.04, -26.69, -21.46, -20.90, -28.19, -25.91, -16.88, -19.62, 0.000, 0.000, 0.000, 20:49:25.516, 1541900965516
12, -17.86, -26.53, -21.57, -20.90, -28.25, -26.06, -16.90, -19.83, 0.000, 0.000, 0.000, 20:49:25.516, 1541900965516
13, -17.97, -26.71, -21.37, -20.81, -28.19, -26.08, -17.01, -19.71, 0.042, 0.966, 0.314, 20:49:25.516, 1541900965516
14, -18.15, -26.84, -21.44, -20.85, -28.43, -26.15, -16.92, -19.85, 0.000, 0.000, 0.000, 20:49:25.516, 1541900965516
15, -18.06, -26.69, -21.44, -20.83, -28.54, -26.17, -16.83, -19.94, 0.000, 0.000, 0.000, 20:49:25.516, 1541900965516
16, -18.13, -26.69, -21.59, -20.68, -28.43, -26.22, -16.94, -19.94, 0.000, 0.000, 0.000, 20:49:25.516, 1541900965516
17, -18.02, -26.64, -21.61, -20.81, -28.19, -26.24, -16.85, -19.89, 0.000, 0.000, 0.000, 20:49:25.516, 1541900965516
18, -18.22, -26.76, -21.52, -20.90, -28.14, -26.13, -17.01, -20.21, 0.000, 0.000, 0.000, 20:49:25.516, 1541900965516
19, -18.02, -26.98, -21.55, -21.03, -28.34, -26.26, -17.03, -20.14, 0.000, 0.000, 0.000, 20:49:25.516, 1541900965516
20, -17.97, -26.80, -21.52, -20.85, -28.36, -26.13, -16.81, -20.00, 0.000, 0.000, 0.000, 20:49:25.516, 1541900965516
21, -18.04, -26.82, -21.61, -20.79, -28.36, -26.15, -16.88, -19.92, 0.000, 0.000, 0.000, 20:49:25.516, 1541900965516
22, -17.97, -26.76, -21.37, -20.81, -28.39, -26.08, -16.85, -19.80, 0.000, 0.000, 0.000, 20:49:25.517, 1541900965517
23, -18.13, -26.62, -21.64, -21.03, -28.36, -26.08, -16.79, -20.05, -0.036, 0.944, 0.416, 20:49:25.517, 1541900965517
24, -18.08, -26.53, -21.59, -21.10, -28.23, -26.06, -16.85, -19.85, 0.000, 0.000, 0.000, 20:49:25.517, 1541900965517
25, -17.99, -26.46, -21.32, -21.06, -28.25, -26.13, -16.90, -19.89, 0.000, 0.000, 0.000, 20:49:25.517, 1541900965517
26, -18.19, -26.82, -21.21, -21.06, -28.43, -25.95, -16.74, -19.71, 0.000, 0.000, 0.000, 20:49:25.517, 1541900965517
27, -18.08, -27.09, -21.59, -21.21, -28.52, -26.02, -16.63, -19.71, 0.000, 0.000, 0.000, 20:49:25.517, 1541900965517
28, -17.97, -26.96, -21.66, -20.76, -28.70, -26.20, -16.79, -19.87, 0.000, 0.000, 0.000, 20:49:25.517, 1541900965517
29, -17.97, -26.58, -21.59, -20.85, -28.54, -26.02, -16.90, -19.87, 0.000, 0.000, 0.000, 20:49:25.517, 1541900965517
30, -18.04, -26.64, -21.17, -20.99, -28.52, -25.86, -16.79, -19.83, 0.000, 0.000, 0.000, 20:49:25.517, 1541900965517
31, -18.08, -26.76, -21.32, -20.92, -28.52, -25.97, -17.03, -19.85, 0.000, 0.000, 0.000, 20:49:25.517, 1541900965517
32, -18.04, -26.98, -21.26, -20.81, -28.34, -26.24, -16.94, -19.83, 0.000, 0.000, 0.000, 20:49:25.517, 1541900965517
33, -18.08, -26.76, -21.44, -20.92, -28.25, -26.40, -16.96, -19.92, -0.018, 0.890, 0.284, 20:49:25.517, 1541900965517
34, -17.95, -26.58, -21.28, -20.99, -28.36, -26.13, -16.85, -20.27, 0.000, 0.000, 0.000, 20:49:25.517, 1541900965517
35, -18.08, -26.67, -21.48, -20.90, -28.52, -26.13, -16.79, -19.87, 0.000, 0.000, 0.000, 20:49:25.518, 1541900965518
36, -17.97, -26.69, -21.39, -20.90, -28.45, -26.17, -17.01, -19.71, 0.000, 0.000, 0.000, 20:49:25.518, 1541900965518
37, -18.04, -26.62, -21.37, -20.88, -28.32, -26.33, -17.03, -19.98, 0.000, 0.000, 0.000, 20:49:25.518, 1541900965518
38, -18.08, -26.60, -21.50, -20.92, -28.07, -26.04, -17.05, -19.96, 0.000, 0.000, 0.000, 20:49:25.518, 1541900965518
39, -17.95, -26.67, -21.61, -20.81, -28.39, -26.04, -16.92, -19.92, 0.000, 0.000, 0.000, 20:49:25.518, 1541900965518
40, -17.84, -26.80, -21.37, -21.12, -28.23, -26.02, -16.79, -19.80, 0.000, 0.000, 0.000, 20:49:25.518, 1541900965518
41, -18.10, -26.91, -21.66, -20.94, -28.34, -26.20, -16.90, -19.71, 0.000, 0.000, 0.000, 20:49:25.518, 1541900965518
42, -18.04, -26.84, -21.55, -20.97, -28.25, -26.13, -16.99, -19.54, 0.000, 0.000, 0.000, 20:49:25.518, 1541900965518
43, -18.08, -26.69, -21.39, -21.06, -28.16, -26.13, -16.88, -19.65, -0.022, 0.852, 0.172, 20:49:25.518, 1541900965518
44, -18.08, -26.84, -21.66, -21.01, -28.30, -26.11, -16.81, -19.40, 0.000, 0.000, 0.000, 20:49:25.518, 1541900965518
45, -18.08, -26.76, -21.59, -20.97, -28.36, -26.11, -16.88, -19.71, 0.000, 0.000, 0.000, 20:49:25.518, 1541900965518
46, -18.04, -26.58, -21.59, -21.06, -28.30, -26.38, -17.08, -19.89, 0.000, 0.000, 0.000, 20:49:25.518, 1541900965518
47, -17.97, -26.67, -21.50, -20.85, -28.21, -26.17, -17.01, -19.87, 0.000, 0.000, 0.000, 20:49:25.518, 1541900965518
48, -18.04, -26.55, -21.30, -20.76, -28.36, -25.84, -16.67, -19.87, 0.000, 0.000, 0.000, 20:49:25.519, 1541900965519
49, -17.90, -26.73, -21.44, -20.76, -28.34, -26.13, -16.61, -20.07, 0.000, 0.000, 0.000, 20:49:25.519, 1541900965519
50, -18.15, -26.49, -21.50, -20.88, -28.32, -26.46, -16.74, -19.83, 0.000, 0.000, 0.000, 20:49:25.519, 1541900965519
51, -17.95, -26.62, -21.48, -20.99, -28.39, -26.42, -16.96, -19.71, 0.000, 0.000, 0.000, 20:49:25.519, 1541900965519
52, -17.99, -26.78, -21.44, -20.83, -28.43, -26.22, -16.74, -19.83, 0.002, 0.924, 0.194, 20:49:25.519, 1541900965519
53, -18.28, -26.71, -21.50, -20.85, -28.39, -26.17, -16.74, -19.87, 0.000, 0.000, 0.000, 20:49:25.519, 1541900965519
54, -18.06, -26.44, -21.66, -20.97, -28.39, -26.20, -16.96, -20.05, 0.000, 0.000, 0.000, 20:49:25.519, 1541900965519
55, -17.84, -26.42, -21.48, -20.72, -28.54, -26.24, -17.05, -19.98, 0.000, 0.000, 0.000, 20:49:25.519, 1541900965519
56, -17.88, -26.69, -21.59, -20.99, -28.41, -26.06, -17.01, -19.74, 0.000, 0.000, 0.000, 20:49:25.519, 1541900965519
57, -17.90, -26.64, -21.52, -20.92, -28.39, -25.84, -16.74, -19.69, 0.000, 0.000, 0.000, 20:49:25.519, 1541900965519
58, -17.81, -26.82, -21.30, -21.01, -28.30, -25.79, -16.79, -19.83, 0.000, 0.000, 0.000, 20:49:25.519, 1541900965519
59, -17.93, -26.69, -21.37, -21.01, -28.25, -25.86, -16.81, -19.83, 0.000, 0.000, 0.000, 20:49:25.519, 1541900965519
60, -17.86, -26.64, -21.57, -21.08, -28.10, -25.97, -16.81, -19.92, 0.000, 0.000, 0.000, 20:49:25.520, 1541900965520
61, -17.97, -26.53, -21.46, -20.88, -28.34, -26.00, -16.81, -19.80, 0.000, 0.000, 0.000, 20:49:25.520, 1541900965520
62, -18.04, -26.58, -21.37, -20.70, -28.21, -26.22, -17.01, -19.87, 0.066, 0.962, 0.296, 20:49:25.520, 1541900965520
63, -18.08, -26.64, -21.50, -21.08, -28.16, -26.29, -16.79, -19.71, 0.000, 0.000, 0.000, 20:49:25.520, 1541900965520
64, -18.06, -26.87, -21.68, -20.94, -28.19, -26.22, -16.85, -19.80, 0.000, 0.000, 0.000, 20:49:25.520, 1541900965520
65, -17.97, -27.00, -21.50, -20.88, -28.21, -26.08, -16.96, -19.62, 0.000, 0.000, 0.000, 20:49:25.520, 1541900965520
66, -18.06, -26.89, -21.48, -20.99, -28.50, -26.06, -16.67, -19.83, 0.000, 0.000, 0.000, 20:49:25.520, 1541900965520
67, -18.10, -26.76, -21.48, -21.08, -28.70, -26.06, -16.88, -19.92, 0.000, 0.000, 0.000, 20:49:25.520, 1541900965520
68, -18.08, -26.46, -21.46, -20.92, -28.52, -26.22, -17.01, -19.89, 0.000, 0.000, 0.000, 20:49:25.520, 1541900965520
69, -17.93, -26.53, -21.77, -20.74, -28.25, -26.11, -17.08, -19.87, 0.000, 0.000, 0.000, 20:49:25.520, 1541900965520
70, -17.95, -26.89, -21.68, -20.81, -28.03, -26.04, -16.88, -19.65, 0.000, 0.000, 0.000, 20:49:25.520, 1541900965520
71, -18.19, -26.87, -21.61, -20.90, -28.36, -26.08, -16.79, -19.51, 0.000, 0.000, 0.000, 20:49:25.520, 1541900965520
72, -18.08, -26.87, -21.41, -20.76, -28.25, -26.06, -16.92, -19.80, 0.076, 0.958, 0.286, 20:49:25.521, 1541900965521
73, -17.99, -26.96, -21.32, -20.88, -28.16, -26.06, -16.83, -19.76, 0.000, 0.000, 0.000, 20:49:25.521, 1541900965521
74, -17.93, -26.58, -21.28, -20.90, -28.21, -26.15, -16.79, -20.00, 0.000, 0.000, 0.000, 20:49:25.990, 1541900965990
75, -17.86, -26.58, -21.46, -20.72, -28.30, -26.22, -16.79, -20.03, 0.000, 0.000, 0.000, 20:49:25.990, 1541900965990
76, -17.90, -26.64, -21.68, -20.59, -28.12, -26.11, -16.79, -19.98, 0.000, 0.000, 0.000, 20:49:25.991, 1541900965991
77, -17.90, -26.82, -21.55, -20.83, -28.41, -26.29, -16.99, -20.03, 0.000, 0.000, 0.000, 20:49:25.992, 1541900965992
78, -18.26, -26.78, -21.70, -20.94, -28.43, -26.24, -16.85, -19.80, 0.000, 0.000, 0.000, 20:49:25.992, 1541900965992
79, -18.15, -26.96, -21.57, -21.17, -28.19, -26.17, -16.61, -19.71, 0.000, 0.000, 0.000, 20:49:25.993, 1541900965993
80, -18.15, -26.73, -21.44, -20.99, -28.25, -26.02, -16.85, -20.00, 0.000, 0.000, 0.000, 20:49:25.993, 1541900965993
81, -18.24, -26.76, -21.50, -21.03, -28.21, -25.97, -17.03, -19.94, 0.000, 0.000, 0.000, 20:49:25.993, 1541900965993
82, -18.17, -26.64, -21.46, -21.10, -28.16, -26.06, -17.08, -20.05, 0.066, 0.968, 0.294, 20:49:25.993, 1541900965993
83, -18.19, -26.71, -21.37, -21.03, -28.14, -25.88, -16.96, -20.03, 0.000, 0.000, 0.000, 20:49:25.994, 1541900965994
84, -17.97, -26.87, -21.55, -20.83, -28.30, -26.02, -16.92, -19.85, 0.000, 0.000, 0.000, 20:49:25.994, 1541900965994
85, -17.90, -27.07, -21.50, -20.94, -28.25, -26.29, -16.85, -19.85, 0.000, 0.000, 0.000, 20:49:25.994, 1541900965994
86, -18.08, -27.02, -21.48, -20.94, -28.39, -26.22, -17.08, -19.96, 0.000, 0.000, 0.000, 20:49:25.995, 1541900965995
87, -18.22, -26.73, -21.48, -20.94, -28.39, -26.13, -16.99, -20.03, 0.000, 0.000, 0.000, 20:49:25.995, 1541900965995
88, -18.22, -26.84, -21.46, -20.88, -28.19, -26.24, -16.90, -19.87, 0.000, 0.000, 0.000, 20:49:25.995, 1541900965995
89, -18.15, -26.62, -21.44, -20.68, -28.30, -26.17, -16.70, -19.87, 0.000, 0.000, 0.000, 20:49:25.995, 1541900965995
90, -18.02, -26.78, -21.68, -20.81, -28.21, -26.24, -16.88, -19.89, 0.000, 0.000, 0.000, 20:49:25.996, 1541900965996
91, -17.88, -26.84, -21.77, -20.68, -28.25, -26.38, -17.12, -19.87, 0.064, 0.982, 0.280, 20:49:25.996, 1541900965996
92, -17.77, -26.84, -21.70, -20.68, -28.16, -26.35, -16.96, -19.83, 0.000, 0.000, 0.000, 20:49:25.996, 1541900965996
93, -17.97, -26.73, -21.48, -21.08, -28.30, -26.46, -16.99, -19.85, 0.000, 0.000, 0.000, 20:49:25.997, 1541900965997
94, -18.13, -26.76, -21.32, -21.14, -28.34, -26.24, -16.81, -19.69, 0.000, 0.000, 0.000, 20:49:25.997, 1541900965997
95, -18.04, -26.69, -21.28, -21.14, -28.41, -26.13, -16.96, -19.69, 0.000, 0.000, 0.000, 20:49:25.997, 1541900965997
96, -18.04, -26.62, -21.37, -20.88, -28.41, -26.31, -16.85, -19.94, 0.000, 0.000, 0.000, 20:49:25.998, 1541900965998
97, -17.90, -26.67, -21.46, -21.03, -28.25, -26.24, -16.85, -20.12, 0.000, 0.000, 0.000, 20:49:25.998, 1541900965998
98, -17.86, -26.69, -21.39, -20.52, -28.30, -26.15, -16.85, -19.76, 0.000, 0.000, 0.000, 20:49:25.998, 1541900965998
99, -18.10, -26.93, -21.35, -20.70, -28.14, -26.20, -16.90, -19.78, 0.000, 0.000, 0.000, 20:49:25.999, 1541900965999
100, -18.04, -26.84, -21.35, -20.70, -28.21, -26.02, -16.79, -19.85, 0.000, 0.000, 0.000, 20:49:26.001, 1541900966001
101, -17.86, -26.69, -21.32, -20.83, -28.27, -26.20, -17.08, -19.71, 0.034, 0.984, 0.312, 20:49:26.001, 1541900966001
102, -17.90, -26.78, -21.64, -20.88, -28.36, -26.33, -16.76, -19.78, 0.000, 0.000, 0.000, 20:49:26.001, 1541900966001
103, -18.15, -26.82, -21.61, -20.70, -28.36, -26.11, -16.83, -19.74, 0.000, 0.000, 0.000, 20:49:26.001, 1541900966001
104, -18.04, -26.51, -21.39, -20.76, -28.32, -26.06, -16.96, -19.60, 0.000, 0.000, 0.000, 20:49:26.002, 1541900966002
105, -18.02, -26.64, -21.39, -21.12, -28.32, -26.00, -16.81, -19.49, 0.000, 0.000, 0.000, 20:49:26.002, 1541900966002
106, -17.97, -26.64, -21.61, -21.06, -28.32, -26.08, -16.81, -19.65, 0.000, 0.000, 0.000, 20:49:26.002, 1541900966002
107, -17.97, -26.69, -21.57, -20.94, -28.48, -26.13, -16.85, -19.76, 0.000, 0.000, 0.000, 20:49:26.003, 1541900966003
108, -17.97, -26.58, -21.28, -20.97, -28.39, -26.11, -16.72, -19.62, 0.000, 0.000, 0.000, 20:49:26.003, 1541900966003
109, -17.64, -26.91, -21.50, -20.83, -28.21, -26.02, -16.81, -19.92, 0.000, 0.000, 0.000, 20:49:26.003, 1541900966003
110, -17.81, -26.71, -21.21, -20.99, -28.27, -25.95, -16.96, -20.38, 0.000, 0.000, 0.000, 20:49:26.004, 1541900966004
111, -17.86, -26.69, -21.46, -20.88, -28.32, -26.17, -17.17, -20.07, -0.002, 0.986, 0.364, 20:49:26.004, 1541900966004
112, -17.79, -26.87, -21.66, -20.83, -28.52, -26.31, -17.08, -19.96, 0.000, 0.000, 0.000, 20:49:26.004, 1541900966004
113, -17.86, -26.93, -21.50, -20.88, -28.27, -26.22, -16.85, -19.69, 0.000, 0.000, 0.000, 20:49:26.005, 1541900966005
114, -18.04, -26.62, -21.52, -20.76, -28.21, -26.24, -16.79, -19.76, 0.000, 0.000, 0.000, 20:49:26.005, 1541900966005
115, -18.04, -26.76, -21.61, -20.72, -28.27, -26.20, -16.90, -19.76, 0.000, 0.000, 0.000, 20:49:26.005, 1541900966005
116, -17.90, -26.73, -21.50, -20.79, -28.50, -26.15, -16.94, -19.74, 0.000, 0.000, 0.000, 20:49:26.005, 1541900966005
117, -17.97, -26.89, -21.66, -20.70, -28.41, -26.20, -17.03, -19.96, 0.000, 0.000, 0.000, 20:49:26.006, 1541900966006
118, -17.97, -26.73, -21.73, -20.74, -28.36, -26.15, -17.08, -20.03, 0.000, 0.000, 0.000, 20:49:26.006, 1541900966006
119, -17.81, -26.76, -21.82, -20.99, -28.39, -26.11, -16.94, -19.98, 0.000, 0.000, 0.000, 20:49:26.006, 1541900966006
120, -17.84, -26.73, -21.61, -20.99, -28.27, -26.02, -16.81, -19.96, 0.000, 0.000, 0.000, 20:49:26.007, 1541900966007
121, -18.06, -26.71, -21.61, -20.88, -28.32, -26.08, -16.90, -19.78, 0.086, 0.962, 0.278, 20:49:26.007, 1541900966007
122, -17.97, -26.73, -21.57, -20.74, -28.19, -25.93, -16.76, -19.76, 0.000, 0.000, 0.000, 20:49:26.007, 1541900966007
123, -17.79, -26.76, -21.79, -20.83, -28.43, -26.04, -16.70, -19.76, 0.000, 0.000, 0.000, 20:49:26.008, 1541900966008
124, -17.90, -26.71, -21.61, -21.14, -28.23, -26.13, -16.90, -19.87, 0.000, 0.000, 0.000, 20:49:26.008, 1541900966008
125, -17.93, -26.64, -21.64, -21.10, -28.25, -26.20, -17.01, -19.98, 0.000, 0.000, 0.000, 20:49:26.009, 1541900966009
126, -17.86, -26.64, -21.61, -21.01, -28.14, -26.17, -16.96, -19.76, 0.000, 0.000, 0.000, 20:49:26.009, 1541900966009
127, -17.95, -26.71, -21.57, -21.01, -28.43, -26.04, -17.01, -19.74, 0.000, 0.000, 0.000, 20:49:26.009, 1541900966009
128, -18.04, -26.84, -21.75, -20.90, -28.27, -26.00, -16.94, -19.94, 0.000, 0.000, 0.000, 20:49:26.010, 1541900966010
129, -18.06, -26.98, -21.59, -20.83, -28.32, -25.91, -16.76, -19.78, 0.000, 0.000, 0.000, 20:49:26.010, 1541900966010
130, -17.97, -26.73, -21.59, -20.92, -28.36, -26.04, -16.76, -19.83, 0.000, 0.000, 0.000, 20:49:26.010, 1541900966010
131, -18.06, -26.78, -21.41, -21.06, -28.32, -26.02, -16.96, -19.76, 0.068, 0.970, 0.272, 20:49:26.010, 1541900966010
132, -17.75, -26.76, -21.32, -20.88, -28.25, -25.88, -16.90, -19.85, 0.000, 0.000, 0.000, 20:49:26.015, 1541900966015
133, -17.90, -27.05, -21.26, -20.88, -28.14, -26.11, -17.01, -19.98, 0.000, 0.000, 0.000, 20:49:26.015, 1541900966015
134, -18.15, -26.84, -21.32, -20.83, -28.39, -26.17, -16.85, -19.92, 0.000, 0.000, 0.000, 20:49:26.015, 1541900966015
135, -18.06, -26.76, -21.50, -21.01, -28.52, -26.22, -16.88, -19.78, 0.000, 0.000, 0.000, 20:49:26.015, 1541900966015
136, -18.02, -26.71, -21.17, -20.99, -28.36, -26.24, -17.08, -20.03, 0.000, 0.000, 0.000, 20:49:26.015, 1541900966015
137, -18.02, -26.84, -21.28, -20.85, -28.41, -26.20, -16.81, -20.07, 0.000, 0.000, 0.000, 20:49:26.016, 1541900966016
138, -18.13, -26.80, -21.50, -20.68, -28.45, -26.24, -16.90, -20.03, 0.000, 0.000, 0.000, 20:49:26.016, 1541900966016
139, -18.15, -26.64, -21.59, -21.03, -28.16, -26.15, -16.88, -19.96, 0.000, 0.000, 0.000, 20:49:26.016, 1541900966016
140, -18.02, -26.80, -21.44, -20.94, -28.19, -26.20, -16.81, -19.83, 0.036, 0.962, 0.256, 20:49:26.016, 1541900966016
141, -17.93, -26.96, -21.55, -20.83, -28.25, -26.20, -16.85, -19.71, 0.000, 0.000, 0.000, 20:49:26.016, 1541900966016
142, -17.97, -26.76, -21.48, -20.94, -28.30, -26.31, -16.88, -19.94, 0.000, 0.000, 0.000, 20:49:26.017, 1541900966017
143, -18.15, -26.73, -21.21, -21.03, -28.30, -26.02, -16.79, -19.98, 0.000, 0.000, 0.000, 20:49:26.017, 1541900966017
144, -18.15, -26.67, -21.48, -20.94, -28.03, -26.04, -16.92, -19.92, 0.000, 0.000, 0.000, 20:49:26.017, 1541900966017
145, -18.19, -26.73, -21.61, -21.03, -28.25, -26.13, -16.83, -19.76, 0.000, 0.000, 0.000, 20:49:26.017, 1541900966017
146, -17.81, -26.96, -21.59, -20.76, -28.36, -26.11, -17.05, -19.83, 0.000, 0.000, 0.000, 20:49:26.017, 1541900966017
147, -17.97, -27.02, -21.68, -20.76, -28.36, -26.20, -17.03, -19.96, 0.000, 0.000, 0.000, 20:49:26.018, 1541900966018
148, -17.90, -26.93, -21.73, -20.74, -28.41, -26.02, -16.81, -19.85, 0.000, 0.000, 0.000, 20:49:26.018, 1541900966018
149, -18.26, -26.87, -21.64, -20.79, -28.36, -25.77, -16.72, -19.67, 0.000, 0.000, 0.000, 20:49:26.018, 1541900966018
150, -18.28, -26.89, -21.70, -20.92, -28.21, -25.91, -17.03, -19.69, 0.018, 0.978, 0.250, 20:49:26.018, 1541900966018
151, -18.13, -26.76, -21.64, -21.10, -28.27, -25.95, -16.99, -19.67, 0.000, 0.000, 0.000, 20:49:26.018, 1541900966018
152, -18.15, -26.80, -21.37, -21.26, -28.27, -26.22, -16.70, -19.83, 0.000, 0.000, 0.000, 20:49:26.018, 1541900966018
153, -18.13, -26.87, -21.32, -20.81, -28.32, -26.20, -16.81, -19.94, 0.000, 0.000, 0.000, 20:49:26.019, 1541900966019
154, -18.04, -26.96, -21.52, -20.85, -28.21, -26.17, -17.05, -19.94, 0.000, 0.000, 0.000, 20:49:26.019, 1541900966019
155, -18.04, -26.93, -21.66, -20.94, -28.19, -26.08, -16.99, -19.76, 0.000, 0.000, 0.000, 20:49:26.019, 1541900966019
156, -18.04, -26.80, -21.41, -21.10, -28.36, -25.86, -16.63, -19.94, 0.000, 0.000, 0.000, 20:49:26.019, 1541900966019
157, -17.97, -26.84, -21.44, -21.10, -28.48, -25.97, -16.63, -19.96, 0.000, 0.000, 0.000, 20:49:26.019, 1541900966019
158, -17.75, -26.80, -21.57, -20.79, -28.52, -26.24, -16.79, -19.80, 0.000, 0.000, 0.000, 20:49:26.019, 1541900966019
159, -17.86, -26.87, -21.41, -20.88, -28.25, -26.31, -16.79, -19.69, 0.000, 0.000, 0.000, 20:49:26.020, 1541900966020
160, -17.88, -26.89, -21.39, -20.92, -28.10, -26.26, -17.12, -19.80, 0.006, 0.982, 0.264, 20:49:26.020, 1541900966020
161, -17.99, -26.84, -21.19, -21.03, -28.21, -26.26, -17.19, -19.83, 0.000, 0.000, 0.000, 20:49:26.020, 1541900966020
162, -18.15, -26.78, -21.28, -20.90, -28.25, -26.22, -16.90, -19.78, 0.000, 0.000, 0.000, 20:49:26.020, 1541900966020
163, -17.95, -26.58, -21.44, -21.06, -28.30, -26.22, -17.08, -19.83, 0.000, 0.000, 0.000, 20:49:26.020, 1541900966020
164, -18.02, -26.51, -21.37, -20.88, -28.21, -26.17, -16.96, -19.92, 0.000, 0.000, 0.000, 20:49:26.020, 1541900966020
165, -17.93, -26.46, -21.44, -21.03, -28.34, -26.22, -16.92, -20.14, 0.000, 0.000, 0.000, 20:49:26.020, 1541900966020
166, -18.06, -26.62, -21.55, -21.03, -28.21, -26.06, -16.96, -20.14, 0.000, 0.000, 0.000, 20:49:26.020, 1541900966020
167, -17.93, -26.73, -21.48, -20.76, -28.19, -25.95, -17.23, -19.94, 0.000, 0.000, 0.000, 20:49:26.021, 1541900966021
168, -17.86, -26.78, -21.55, -20.70, -28.43, -25.97, -16.94, -19.98, 0.000, 0.000, 0.000, 20:49:26.021, 1541900966021
169, -17.90, -26.64, -21.52, -20.56, -28.41, -25.93, -16.96, -20.09, 0.000, 0.000, 0.000, 20:49:26.021, 1541900966021
170, -18.08, -26.89, -21.32, -20.74, -28.41, -26.02, -17.03, -19.76, 0.020, 0.980, 0.258, 20:49:26.021, 1541900966021
171, -18.17, -26.80, -21.37, -20.79, -28.32, -26.24, -16.96, -19.54, 0.000, 0.000, 0.000, 20:49:26.021, 1541900966021
172, -18.15, -26.80, -21.68, -20.85, -28.21, -26.31, -16.90, -19.89, 0.000, 0.000, 0.000, 20:49:26.021, 1541900966021
173, -18.04, -26.82, -21.64, -20.92, -28.25, -26.24, -16.96, -19.98, 0.000, 0.000, 0.000, 20:49:26.021, 1541900966021
174, -18.26, -26.73, -21.59, -20.92, -28.14, -26.04, -16.81, -19.65, 0.000, 0.000, 0.000, 20:49:26.022, 1541900966022
175, -18.02, -26.78, -21.70, -21.06, -28.14, -26.17, -16.92, -19.92, 0.000, 0.000, 0.000, 20:49:26.022, 1541900966022
176, -18.04, -26.87, -21.44, -20.90, -28.25, -26.26, -16.88, -19.78, 0.000, 0.000, 0.000, 20:49:26.022, 1541900966022
177, -18.04, -26.78, -21.19, -20.97, -28.43, -26.15, -16.88, -19.65, 0.000, 0.000, 0.000, 20:49:26.022, 1541900966022
178, -17.90, -26.69, -21.41, -20.65, -28.41, -26.22, -16.88, -19.74, 0.000, 0.000, 0.000, 20:49:26.022, 1541900966022
179, -18.08, -26.58, -21.50, -20.81, -28.43, -26.29, -17.01, -19.60, 0.000, 0.000, 0.000, 20:49:26.023, 1541900966023
180, -18.15, -26.98, -21.37, -20.65, -28.39, -26.06, -16.92, -19.87, 0.056, 0.950, 0.288, 20:49:26.023, 1541900966023
181, -18.02, -26.69, -21.37, -20.83, -28.32, -26.22, -16.90, -20.05, 0.000, 0.000, 0.000, 20:49:26.024, 1541900966024
182, -17.81, -26.67, -21.66, -21.03, -28.36, -26.40, -16.85, -19.65, 0.000, 0.000, 0.000, 20:49:26.025, 1541900966025
183, -17.90, -26.76, -21.55, -20.99, -28.52, -26.35, -17.05, -19.83, 0.000, 0.000, 0.000, 20:49:26.025, 1541900966025
184, -18.08, -26.69, -21.57, -20.88, -28.36, -26.13, -17.12, -19.85, 0.000, 0.000, 0.000, 20:49:26.026, 1541900966026
185, -17.86, -26.62, -21.59, -20.65, -28.14, -26.02, -17.08, -20.05, 0.000, 0.000, 0.000, 20:49:26.027, 1541900966027
186, -18.10, -26.93, -21.55, -20.70, -28.36, -26.17, -17.01, -19.87, 0.000, 0.000, 0.000, 20:49:26.028, 1541900966028
187, -18.22, -26.82, -21.59, -20.72, -28.36, -25.97, -16.81, -19.76, 0.000, 0.000, 0.000, 20:49:26.029, 1541900966029
188, -17.93, -26.71, -21.48, -20.88, -28.30, -26.08, -17.03, -19.54, 0.000, 0.000, 0.000, 20:49:26.029, 1541900966029
189, -17.90, -26.69, -21.37, -20.70, -28.19, -26.15, -16.79, -19.71, 0.040, 0.960, 0.298, 20:49:26.030, 1541900966030
190, -17.95, -26.49, -21.37, -20.88, -28.32, -26.17, -16.81, -19.89, 0.000, 0.000, 0.000, 20:49:26.030, 1541900966030
191, -17.90, -26.38, -21.48, -20.97, -28.30, -26.00, -16.96, -19.78, 0.000, 0.000, 0.000, 20:49:26.030, 1541900966030
192, -17.84, -26.53, -21.66, -21.06, -28.30, -25.95, -16.74, -19.80, 0.000, 0.000, 0.000, 20:49:26.030, 1541900966030
193, -18.02, -26.73, -21.44, -21.08, -28.36, -25.79, -16.74, -19.74, 0.000, 0.000, 0.000, 20:49:26.030, 1541900966030
194, -18.15, -26.84, -21.14, -20.92, -28.27, -25.79, -16.76, -19.94, 0.000, 0.000, 0.000, 20:49:26.468, 1541900966468
195, -18.02, -26.69, -21.23, -20.74, -28.43, -26.06, -16.83, -19.87, 0.000, 0.000, 0.000, 20:49:26.468, 1541900966468
196, -17.88, -26.80, -21.37, -20.76, -28.36, -26.11, -16.99, -19.76, 0.000, 0.000, 0.000, 20:49:26.468, 1541900966468
197, -17.93, -26.84, -21.64, -20.70, -28.43, -26.04, -17.08, -19.83, 0.000, 0.000, 0.000, 20:49:26.468, 1541900966468
198, -18.15, -26.58, -21.70, -20.92, -28.34, -26.38, -16.96, -19.98, 0.000, 0.000, 0.000, 20:49:26.469, 1541900966469
199, -18.22, -26.80, -21.44, -20.99, -28.39, -26.29, -16.85, -19.87, 0.018, 1.058, 0.278, 20:49:26.469, 1541900966469
200, -18.17, -26.87, -21.39, -20.81, -28.14, -25.97, -16.70, -19.62, 0.000, 0.000, 0.000, 20:49:26.469, 1541900966469
201, -18.06, -26.87, -21.57, -20.81, -28.10, -26.00, -16.85, -19.71, 0.000, 0.000, 0.000, 20:49:26.469, 1541900966469
202, -18.04, -26.73, -21.48, -20.92, -28.34, -26.00, -16.85, -19.83, 0.000, 0.000, 0.000, 20:49:26.469, 1541900966469
203, -17.86, -26.87, -21.61, -21.01, -28.14, -26.13, -16.81, -19.92, 0.000, 0.000, 0.000, 20:49:26.469, 1541900966469
204, -17.97, -26.93, -21.57, -20.94, -28.41, -26.15, -16.96, -19.62, 0.000, 0.000, 0.000, 20:49:26.469, 1541900966469
205, -18.13, -27.14, -21.61, -20.79, -28.68, -25.95, -16.65, -19.83, 0.000, 0.000, 0.000, 20:49:26.469, 1541900966469
206, -18.13, -26.62, -21.73, -20.79, -28.70, -26.06, -16.65, -19.98, 0.000, 0.000, 0.000, 20:49:26.469, 1541900966469
207, -18.22, -26.58, -21.44, -20.74, -28.48, -26.08, -16.85, -20.14, 0.000, 0.000, 0.000, 20:49:26.469, 1541900966469
208, -18.22, -26.69, -21.28, -20.97, -28.41, -26.08, -16.94, -20.00, 0.000, 0.000, 0.000, 20:49:26.470, 1541900966470
209, -17.97, -26.80, -21.55, -20.72, -28.19, -26.20, -16.88, -19.80, 0.020, 1.028, 0.292, 20:49:26.470, 1541900966470
210, -18.04, -26.82, -21.44, -20.88, -28.32, -26.08, -16.88, -19.85, 0.000, 0.000, 0.000, 20:49:26.470, 1541900966470
211, -17.70, -26.87, -21.55, -20.97, -28.59, -26.08, -16.74, -19.76, 0.000, 0.000, 0.000, 20:49:26.470, 1541900966470
212, -17.97, -26.82, -21.64, -21.17, -28.43, -26.31, -16.90, -19.76, 0.000, 0.000, 0.000, 20:49:26.471, 1541900966471
213, -18.02, -26.89, -21.77, -21.17, -28.27, -26.17, -17.14, -19.80, 0.000, 0.000, 0.000, 20:49:26.471, 1541900966471
214, -17.99, -26.69, -21.61, -21.01, -28.32, -26.13, -17.01, -19.65, 0.000, 0.000, 0.000, 20:49:26.471, 1541900966471
215, -18.02, -26.62, -21.50, -20.88, -28.19, -26.06, -16.85, -19.76, 0.000, 0.000, 0.000, 20:49:26.475, 1541900966475
216, -18.19, -26.64, -21.39, -20.92, -28.25, -26.06, -17.08, -19.80, 0.000, 0.000, 0.000, 20:49:26.475, 1541900966475
217, -17.97, -26.73, -21.59, -20.83, -28.27, -26.02, -17.01, -19.71, 0.000, 0.000, 0.000, 20:49:26.475, 1541900966475
218, -17.75, -26.73, -21.46, -20.92, -28.36, -26.08, -17.10, -19.87, 0.000, 0.000, 0.000, 20:49:26.475, 1541900966475
219, -17.72, -26.64, -21.50, -20.85, -28.43, -26.15, -16.92, -19.83, 0.012, 1.002, 0.288, 20:49:26.476, 1541900966476
220, -17.79, -26.67, -21.75, -20.85, -28.45, -26.08, -16.90, -20.03, 0.000, 0.000, 0.000, 20:49:26.476, 1541900966476
221, -17.97, -26.73, -21.55, -20.92, -28.43, -26.17, -16.92, -19.96, 0.000, 0.000, 0.000, 20:49:26.476, 1541900966476
222, -18.08, -26.67, -21.48, -20.94, -28.39, -26.11, -16.81, -19.54, 0.000, 0.000, 0.000, 20:49:26.476, 1541900966476
223, -18.19, -26.76, -21.39, -20.81, -28.50, -26.20, -16.76, -19.58, 0.000, 0.000, 0.000, 20:49:26.476, 1541900966476
224, -18.02, -26.87, -21.37, -20.72, -28.48, -26.24, -16.58, -19.65, 0.000, 0.000, 0.000, 20:49:26.476, 1541900966476
225, -18.15, -26.58, -21.30, -20.68, -28.14, -26.06, -16.90, -19.96, 0.000, 0.000, 0.000, 20:49:26.476, 1541900966476
226, -18.13, -26.87, -21.32, -20.94, -28.32, -26.02, -16.76, -20.05, 0.000, 0.000, 0.000, 20:49:26.476, 1541900966476
227, -18.06, -26.84, -21.50, -21.01, -28.57, -26.24, -16.70, -20.05, 0.000, 0.000, 0.000, 20:49:26.476, 1541900966476
228, -18.04, -26.73, -21.48, -20.85, -28.32, -26.06, -17.08, -19.96, 0.000, 0.000, 0.000, 20:49:26.477, 1541900966477
229, -18.13, -26.76, -21.50, -20.88, -28.14, -25.95, -16.81, -19.71, 0.020, 0.988, 0.286, 20:49:26.477, 1541900966477
230, -17.75, -26.84, -21.57, -20.99, -28.39, -25.93, -16.85, -19.74, 0.000, 0.000, 0.000, 20:49:26.477, 1541900966477
231, -17.55, -26.64, -21.55, -20.83, -28.21, -26.08, -17.14, -19.60, 0.000, 0.000, 0.000, 20:49:26.477, 1541900966477
232, -17.57, -26.91, -21.37, -20.97, -28.32, -26.13, -16.92, -19.74, 0.000, 0.000, 0.000, 20:49:26.477, 1541900966477
233, -17.90, -26.82, -21.39, -20.81, -28.25, -26.11, -16.88, -19.80, 0.000, 0.000, 0.000, 20:49:26.477, 1541900966477
234, -17.75, -26.46, -21.55, -20.74, -28.23, -26.13, -16.85, -19.74, 0.000, 0.000, 0.000, 20:49:26.477, 1541900966477
235, -17.81, -26.91, -21.48, -20.81, -28.23, -26.06, -16.72, -19.69, 0.000, 0.000, 0.000, 20:49:26.477, 1541900966477
236, -17.81, -26.69, -21.37, -20.74, -28.12, -25.91, -16.85, -19.83, 0.000, 0.000, 0.000, 20:49:26.477, 1541900966477
237, -17.81, -26.64, -21.48, -20.81, -28.27, -25.91, -16.81, -20.16, 0.000, 0.000, 0.000, 20:49:26.477, 1541900966477
238, -17.86, -26.69, -21.44, -20.92, -28.52, -26.24, -17.01, -20.14, 0.034, 1.008, 0.276, 20:49:26.477, 1541900966477
239, -17.93, -26.71, -21.73, -20.81, -28.54, -26.29, -16.90, -19.83, 0.000, 0.000, 0.000, 20:49:26.477, 1541900966477
240, -17.90, -26.62, -21.66, -20.68, -28.65, -26.38, -16.76, -19.65, 0.000, 0.000, 0.000, 20:49:26.477, 1541900966477
241, -18.06, -26.69, -21.55, -20.85, -28.54, -26.17, -16.76, -19.71, 0.000, 0.000, 0.000, 20:49:26.477, 1541900966477
242, -18.04, -26.78, -21.66, -20.76, -28.43, -26.17, -16.81, -19.94, 0.000, 0.000, 0.000, 20:49:26.477, 1541900966477
