%OpenBCI Raw EEG Data
%Number of channels = 8
%Sample Rate = 250.0 Hz
%First Column = SampleIndex
%Last Column = Timestamp 
%Other Columns = EEG data in microvolts followed by Accel Data (in G) interleaved with Aux Data
0, -183286.17, -178963.19, -181001.05, -178588.48, -183412.19, -183492.55, -183473.70, 187500.00, -0.004, 0.020, 0.524, 22:16:09.999, 1541906169999
1, -183292.88, -178986.44, -181029.77, -178619.31, -183418.98, -183499.36, -183480.56, 187500.00, 0.000, 0.000, 0.000, 22:16:09.999, 1541906169999
2, -183294.00, -178963.80, -181005.72, -178595.13, -183420.06, -183500.42, -183481.59, 187500.00, 0.000, 0.000, 0.000, 22:16:09.999, 1541906169999
3, -183287.03, -178937.20, -180974.38, -178560.13, -183413.09, -183493.42, -183474.67, 187500.00, 0.000, 0.000, 0.000, 22:16:10.000, 1541906170000
4, -183286.47, -178971.58, -181014.88, -178596.80, -183412.50, -183492.81, -183474.11, 187500.00, 0.000, 0.000, 0.000, 22:16:10.000, 1541906170000
5, -183295.58, -179007.52, -181058.02, -178642.22, -183421.69, -183501.94, -183483.25, 187500.00, 0.000, 0.000, 0.000, 22:16:10.000, 1541906170000
6, -183299.03, -178997.09, -181047.53, -178631.94, -183425.27, -183505.48, -183486.73, 187500.00, -0.006, 0.144, 1.474, 22:16:10.000, 1541906170000
7, -183294.69, -178968.20, -181014.13, -178593.86, -183420.95, -183501.16, -183482.47, 187500.00, 0.000, 0.000, 0.000, 22:16:10.000, 1541906170000
8, -183290.13, -178981.56, -181030.58, -178607.73, -183416.20, -183496.53, -183477.73, 187500.00, 0.000, 0.000, 0.000, 22:16:10.000, 1541906170000
9, -183295.61, -179024.81, -181082.81, -178661.17, -183421.56, -183501.88, -183483.11, 187500.00, 0.000, 0.000, 0.000, 22:16:10.000, 1541906170000
10, -183302.31, -179027.91, -181087.23, -178666.56, -183428.38, -183508.64, -183489.73, 187500.00, 0.000, 0.000, 0.000, 22:16:10.000, 1541906170000
11, -183298.67, -178998.84, -181053.86, -178629.86, -183424.80, -183505.05, -183486.17, 187500.00, 0.000, 0.000, 0.000, 22:16:10.000, 1541906170000
12, -183291.52, -178987.78, -181043.27, -178614.69, -183417.63, -183497.91, -183479.16, 187500.00, 0.000, 0.000, 0.000, 22:16:10.000, 1541906170000
13, -183296.30, -179023.41, -181087.25, -178659.19, -183422.39, -183502.66, -183483.94, 187500.00, 0.000, 0.000, 0.000, 22:16:10.001, 1541906170001
14, -183303.31, -179040.75, -181107.58, -178680.70, -183429.30, -183509.58, -183490.88, 187500.00, 0.000, 0.000, 0.000, 22:16:10.001, 1541906170001
15, -183305.05, -179028.89, -181091.86, -178662.56, -183430.95, -183511.33, -183492.53, 187500.00, 0.000, 0.000, 0.000, 22:16:10.001, 1541906170001
16, -183299.16, -179004.36, -181062.53, -178629.03, -183425.09, -183505.58, -183486.69, 187500.00, 0.038, 0.058, 1.200, 22:16:10.001, 1541906170001
17, -183295.52, -179008.34, -181075.20, -178641.48, -183421.63, -183502.05, -183483.19, 187500.00, 0.000, 0.000, 0.000, 22:16:10.001, 1541906170001
18, -183298.31, -179031.19, -181104.78, -178672.63, -183424.47, -183504.89, -183486.09, 187500.00, 0.000, 0.000, 0.000, 22:16:10.001, 1541906170001
19, -183301.98, -179039.75, -181111.73, -178678.09, -183428.00, -183508.42, -183489.69, 187500.00, 0.000, 0.000, 0.000, 22:16:10.001, 1541906170001
20, -183301.20, -179032.42, -181098.05, -178659.25, -183427.27, -183507.64, -183488.81, 187500.00, 0.000, 0.000, 0.000, 22:16:10.001, 1541906170001
21, -183297.06, -179023.30, -181095.03, -178654.48, -183423.14, -183503.41, -183484.66, 187500.00, 0.000, 0.000, 0.000, 22:16:10.002, 1541906170002
22, -183299.88, -179038.00, -181118.34, -178679.64, -183425.98, -183506.39, -183487.56, 187500.00, 0.000, 0.000, 0.000, 22:16:10.002, 1541906170002
23, -183306.00, -179052.42, -181133.72, -178694.88, -183432.17, -183512.55, -183493.75, 187500.00, 0.000, 0.000, 0.000, 22:16:10.002, 1541906170002
24, -183306.22, -179051.53, -181126.73, -178684.20, -183432.28, -183512.67, -183493.78, 187500.00, 0.000, 0.000, 0.000, 22:16:10.002, 1541906170002
25, -183301.05, -179045.22, -181123.48, -178679.61, -183427.11, -183507.50, -183488.73, 187500.00, 0.000, 0.000, 0.000, 22:16:10.002, 1541906170002
26, -183304.33, -179059.23, -181146.11, -178705.14, -183430.34, -183510.72, -183491.98, 187500.00, 0.074, -0.002, 1.096, 22:16:10.003, 1541906170003
27, -183310.78, -179073.13, -181161.94, -178721.75, -183436.78, -183517.16, -183498.34, 187500.00, 0.000, 0.000, 0.000, 22:16:10.003, 1541906170003
28, -183310.94, -179080.81, -181164.73, -178718.89, -183436.92, -183517.25, -183498.36, 187500.00, 0.000, 0.000, 0.000, 22:16:10.003, 1541906170003
29, -183306.73, -179074.97, -181160.69, -178711.52, -183432.89, -183513.09, -183494.22, 187500.00, 0.000, 0.000, 0.000, 22:16:10.003, 1541906170003
30, -183307.91, -179079.91, -181174.41, -178727.34, -183433.97, -183514.28, -183495.45, 187500.00, 0.000, 0.000, 0.000, 22:16:10.003, 1541906170003
31, -183310.77, -179094.53, -181192.88, -178746.25, -183436.77, -183517.03, -183498.30, 187500.00, 0.000, 0.000, 0.000, 22:16:10.003, 1541906170003
32, -183315.69, -179108.59, -181202.13, -178753.28, -183441.67, -183521.94, -183503.20, 187500.00, 0.000, 0.000, 0.000, 22:16:10.003, 1541906170003
33, -183312.84, -179100.25, -181191.48, -178739.98, -183438.81, -183519.13, -183500.27, 187500.00, 0.000, 0.000, 0.000, 22:16:10.003, 1541906170003
34, -183311.56, -179097.95, -181196.52, -178746.09, -183437.56, -183517.89, -183499.03, 187500.00, 0.000, 0.000, 0.000, 22:16:10.003, 1541906170003
35, -183317.84, -179116.28, -181220.06, -178770.72, -183443.91, -183524.25, -183505.31, 187500.00, 0.000, 0.000, 0.000, 22:16:10.004, 1541906170004
36, -183320.83, -179134.45, -181235.14, -178782.67, -183446.92, -183527.16, -183508.31, 187500.00, -0.016, -0.064, 1.100, 22:16:10.004, 1541906170004
37, -183316.50, -179124.77, -181222.94, -178764.38, -183442.61, -183522.91, -183504.03, 187500.00, 0.000, 0.000, 0.000, 22:16:10.004, 1541906170004
38, -183312.91, -179118.11, -181223.05, -178764.95, -183438.95, -183519.38, -183500.34, 187500.00, 0.000, 0.000, 0.000, 22:16:10.004, 1541906170004
39, -183319.84, -179137.56, -181248.19, -178791.33, -183445.88, -183526.20, -183507.34, 187500.00, 0.000, 0.000, 0.000, 22:16:10.004, 1541906170004
40, -183325.17, -179154.52, -181263.08, -178805.83, -183451.22, -183531.48, -183512.70, 187500.00, 0.000, 0.000, 0.000, 22:16:10.019, 1541906170019
41, -183322.16, -179147.70, -181253.00, -178791.42, -183448.19, -183528.42, -183509.58, 187500.00, 0.000, 0.000, 0.000, 22:16:10.020, 1541906170020
42, -183316.84, -179137.47, -181248.59, -178786.14, -183442.84, -183523.13, -183504.27, 187500.00, 0.000, 0.000, 0.000, 22:16:10.020, 1541906170020
43, -183318.94, -179153.88, -181271.72, -178809.97, -183444.98, -183525.25, -183506.45, 187500.00, 0.000, 0.000, 0.000, 22:16:10.021, 1541906170021
44, -183326.08, -179174.97, -181293.63, -178830.73, -183452.16, -183532.48, -183513.73, 187500.00, 0.000, 0.000, 0.000, 22:16:10.021, 1541906170021
45, -183327.08, -179177.80, -181292.89, -178824.88, -183453.05, -183533.39, -183514.50, 187500.00, 0.000, 0.000, 0.000, 22:16:10.021, 1541906170021
46, -183321.78, -179164.92, -181283.28, -178814.08, -183447.83, -183528.09, -183509.30, 187500.00, -0.060, 0.016, 1.050, 22:16:10.021, 1541906170021
47, -183323.89, -179177.30, -181301.67, -178834.30, -183449.86, -183530.19, -183511.41, 187500.00, 0.000, 0.000, 0.000, 22:16:10.021, 1541906170021
48, -183331.42, -179195.78, -181321.02, -178854.78, -183457.44, -183537.75, -183518.92, 187500.00, 0.000, 0.000, 0.000, 22:16:10.022, 1541906170022
49, -183332.20, -179201.55, -181322.91, -178853.09, -183458.17, -183538.42, -183519.58, 187500.00, 0.000, 0.000, 0.000, 22:16:10.022, 1541906170022
50, -183325.36, -179187.25, -181311.44, -178839.59, -183451.31, -183531.64, -183512.69, 187500.00, 0.000, 0.000, 0.000, 22:16:10.022, 1541906170022
51, -183328.17, -179200.91, -181332.00, -178861.64, -183454.31, -183534.58, -183515.69, 187500.00, 0.000, 0.000, 0.000, 22:16:10.022, 1541906170022
52, -183336.31, -179228.19, -181363.03, -178891.72, -183462.36, -183542.66, -183523.78, 187500.00, 0.000, 0.000, 0.000, 22:16:10.022, 1541906170022
53, -183335.34, -179228.63, -181360.30, -178884.45, -183461.33, -183541.72, -183522.81, 187500.00, 0.000, 0.000, 0.000, 22:16:10.023, 1541906170023
54, -183329.16, -179206.72, -181338.41, -178859.80, -183455.20, -183535.47, -183516.58, 187500.00, 0.000, 0.000, 0.000, 22:16:10.023, 1541906170023
55, -183331.61, -179221.11, -181360.69, -178882.84, -183457.66, -183537.88, -183519.03, 187500.00, -0.090, 0.066, 1.068, 22:16:10.023, 1541906170023
56, -183337.97, -179247.39, -181390.48, -178913.69, -183464.09, -183544.27, -183525.34, 187500.00, 0.000, 0.000, 0.000, 22:16:10.023, 1541906170023
57, -183339.91, -179256.38, -181397.16, -178917.13, -183465.97, -183546.23, -183527.28, 187500.00, 0.000, 0.000, 0.000, 22:16:10.023, 1541906170023
58, -183335.91, -179239.28, -181378.66, -178895.73, -183461.97, -183542.22, -183523.23, 187500.00, 0.000, 0.000, 0.000, 22:16:10.023, 1541906170023
59, -183334.20, -179241.69, -181387.97, -178906.06, -183460.30, -183540.50, -183521.63, 187500.00, 0.000, 0.000, 0.000, 22:16:10.025, 1541906170025
60, -183340.83, -179266.14, -181418.69, -178936.69, -183466.86, -183547.20, -183528.30, 187500.00, 0.000, 0.000, 0.000, 22:16:10.025, 1541906170025
61, -183344.45, -179282.08, -181433.50, -178948.42, -183470.47, -183550.70, -183531.89, 187500.00, 0.000, 0.000, 0.000, 22:16:10.026, 1541906170026
62, -183343.50, -179270.97, -181418.73, -178929.86, -183469.50, -183549.64, -183530.91, 187500.00, 0.000, 0.000, 0.000, 22:16:10.026, 1541906170026
63, -183340.38, -179265.70, -181418.63, -178931.45, -183466.33, -183546.50, -183527.70, 187500.00, 0.000, 0.000, 0.000, 22:16:10.034, 1541906170034
64, -183344.67, -179286.44, -181445.84, -178959.61, -183470.72, -183550.94, -183532.20, 187500.00, 0.000, 0.000, 0.000, 22:16:10.034, 1541906170034
65, -183349.83, -179305.84, -181466.23, -178976.83, -183475.77, -183556.13, -183537.25, 187500.00, -0.156, 0.084, 1.026, 22:16:10.034, 1541906170034
66, -183347.36, -179298.13, -181454.97, -178961.09, -183473.42, -183553.69, -183534.80, 187500.00, 0.000, 0.000, 0.000, 22:16:10.034, 1541906170034
67, -183344.64, -179287.05, -181447.39, -178954.97, -183470.75, -183551.05, -183532.11, 187500.00, 0.000, 0.000, 0.000, 22:16:10.035, 1541906170035
68, -183349.28, -179307.86, -181475.75, -178983.95, -183475.34, -183555.58, -183536.72, 187500.00, 0.000, 0.000, 0.000, 22:16:10.035, 1541906170035
69, -183353.95, -179328.55, -181499.20, -179004.75, -183480.02, -183560.03, -183541.33, 187500.00, 0.000, 0.000, 0.000, 22:16:10.035, 1541906170035
70, -183352.22, -179324.22, -181490.44, -178991.06, -183478.22, -183558.38, -183539.69, 187500.00, 0.000, 0.000, 0.000, 22:16:10.035, 1541906170035
71, -183347.75, -179312.77, -181481.20, -178981.77, -183473.66, -183553.91, -183535.17, 187500.00, 0.000, 0.000, 0.000, 22:16:10.035, 1541906170035
72, -183351.53, -179335.77, -181511.41, -179014.13, -183477.50, -183557.80, -183539.02, 187500.00, 0.000, 0.000, 0.000, 22:16:10.035, 1541906170035
73, -183358.23, -179362.59, -181541.28, -179041.13, -183484.22, -183564.39, -183545.64, 187500.00, 0.000, 0.000, 0.000, 22:16:10.036, 1541906170036
74, -183356.61, -179356.84, -181531.41, -179025.75, -183482.61, -183562.73, -183544.05, 187500.00, 0.000, 0.000, 0.000, 22:16:10.036, 1541906170036
75, -183351.83, -179340.94, -181515.50, -179009.48, -183477.81, -183557.89, -183539.27, 187500.00, -0.094, 0.128, 1.040, 22:16:10.036, 1541906170036
76, -183354.86, -179368.27, -181551.91, -179046.83, -183480.80, -183560.95, -183542.23, 187500.00, 0.000, 0.000, 0.000, 22:16:10.036, 1541906170036
77, -183362.28, -179397.36, -181585.25, -179077.45, -183488.23, -183568.48, -183549.64, 187500.00, 0.000, 0.000, 0.000, 22:16:10.036, 1541906170036
78, -183361.30, -179390.56, -181573.19, -179060.36, -183487.13, -183567.31, -183548.52, 187500.00, 0.000, 0.000, 0.000, 22:16:10.036, 1541906170036
79, -183351.69, -179369.75, -181549.77, -179035.61, -183477.55, -183557.70, -183539.00, 187500.00, 0.000, 0.000, 0.000, 22:16:10.036, 1541906170036
80, -183357.97, -179395.56, -181582.55, -179070.75, -183483.91, -183564.08, -183545.39, 187500.00, 0.000, 0.000, 0.000, 22:16:10.036, 1541906170036
81, -183366.84, -179430.64, -181623.09, -179109.70, -183492.70, -183572.88, -183554.23, 187500.00, 0.000, 0.000, 0.000, 22:16:10.036, 1541906170036
82, -183367.84, -179429.58, -181618.98, -179100.92, -183493.67, -183573.80, -183555.09, 187500.00, 0.000, 0.000, 0.000, 22:16:10.037, 1541906170037
83, -183361.30, -179405.25, -181591.58, -179070.66, -183487.13, -183567.30, -183548.55, 187500.00, 0.000, 0.000, 0.000, 22:16:10.037, 1541906170037
84, -183364.45, -179431.27, -181627.08, -179105.27, -183490.19, -183570.52, -183551.72, 187500.00, 0.000, 0.000, 0.000, 22:16:10.037, 1541906170037
85, -183372.83, -179472.67, -181676.14, -179152.59, -183498.61, -183578.94, -183560.09, 187500.00, -0.144, 0.200, 0.998, 22:16:10.037, 1541906170037
86, -183375.09, -179479.06, -181680.63, -179152.44, -183500.97, -183581.23, -183562.39, 187500.00, 0.000, 0.000, 0.000, 22:16:10.037, 1541906170037
87, -183368.39, -179449.95, -181645.16, -179115.23, -183494.19, -183574.42, -183555.63, 187500.00, 0.000, 0.000, 0.000, 22:16:10.037, 1541906170037
88, -183370.28, -179467.72, -181668.64, -179140.44, -183496.03, -183576.25, -183557.45, 187500.00, 0.000, 0.000, 0.000, 22:16:10.037, 1541906170037
89, -183378.44, -179513.05, -181722.31, -179192.83, -183504.19, -183584.50, -183565.64, 187500.00, 0.000, 0.000, 0.000, 22:16:10.037, 1541906170037
90, -183382.67, -179527.22, -181737.11, -179203.45, -183508.42, -183588.70, -183569.86, 187500.00, 0.000, 0.000, 0.000, 22:16:10.037, 1541906170037
91, -183377.11, -179496.84, -181700.20, -179163.28, -183502.81, -183583.09, -183564.23, 187500.00, 0.000, 0.000, 0.000, 22:16:10.038, 1541906170038
92, -183376.30, -179507.33, -181715.88, -179179.25, -183501.94, -183582.20, -183563.38, 187500.00, 0.000, 0.000, 0.000, 22:16:10.038, 1541906170038
93, -183384.81, -179556.91, -181775.80, -179236.27, -183510.55, -183590.78, -183571.94, 187500.00, 0.000, 0.000, 0.000, 22:16:10.038, 1541906170038
94, -183390.95, -179581.16, -181801.97, -179258.44, -183516.72, -183596.94, -183577.98, 187500.00, 0.000, 0.000, 0.000, 22:16:10.038, 1541906170038
95, -183385.16, -179550.81, -181764.92, -179218.94, -183510.88, -183591.13, -183572.20, 187500.00, -0.098, 0.262, 0.974, 22:16:10.038, 1541906170038
96, -183383.25, -179547.33, -181763.19, -179218.61, -183508.91, -183589.22, -183570.36, 187500.00, 0.000, 0.000, 0.000, 22:16:10.041, 1541906170041
97, -183392.64, -179597.06, -181822.92, -179276.78, -183518.33, -183598.61, -183579.66, 187500.00, 0.000, 0.000, 0.000, 22:16:10.041, 1541906170041
98, -183399.66, -179629.25, -181860.02, -179309.88, -183525.34, -183605.52, -183586.58, 187500.00, 0.000, 0.000, 0.000, 22:16:10.041, 1541906170041
99, -183393.31, -179604.17, -181829.13, -179275.36, -183518.92, -183599.14, -183580.25, 187500.00, 0.000, 0.000, 0.000, 22:16:10.041, 1541906170041
100, -183389.22, -179591.66, -181814.83, -179261.86, -183514.83, -183595.03, -183576.17, 187500.00, 0.000, 0.000, 0.000, 22:16:10.041, 1541906170041
101, -183397.78, -179640.78, -181874.63, -179320.78, -183523.48, -183603.69, -183584.80, 187500.00, 0.000, 0.000, 0.000, 22:16:10.042, 1541906170042
102, -183405.59, -179681.05, -181921.27, -179363.44, -183531.31, -183611.58, -183592.53, 187500.00, 0.000, 0.000, 0.000, 22:16:10.053, 1541906170053
103, -183401.13, -179661.64, -181897.84, -179335.45, -183526.75, -183606.95, -183588.08, 187500.00, 0.000, 0.000, 0.000, 22:16:10.054, 1541906170054
104, -183395.34, -179633.28, -181864.61, -179303.56, -183521.06, -183601.14, -183582.30, 187500.00, -0.026, 0.308, 0.890, 22:16:10.055, 1541906170055
105, -183402.38, -179677.89, -181919.75, -179357.13, -183528.00, -183608.11, -183589.28, 187500.00, 0.000, 0.000, 0.000, 22:16:10.055, 1541906170055
106, -183409.56, -179725.03, -181975.00, -179408.64, -183535.16, -183615.27, -183596.38, 187500.00, 0.000, 0.000, 0.000, 22:16:10.056, 1541906170056
107, -183408.03, -179714.69, -181961.33, -179390.61, -183533.47, -183613.70, -183594.78, 187500.00, 0.000, 0.000, 0.000, 22:16:10.056, 1541906170056
108, -183401.64, -179675.41, -181915.77, -179344.73, -183527.17, -183607.42, -183588.42, 187500.00, 0.000, 0.000, 0.000, 22:16:10.056, 1541906170056
109, -183407.20, -179712.17, -181961.25, -179389.55, -183532.69, -183612.91, -183594.08, 187500.00, 0.000, 0.000, 0.000, 22:16:10.057, 1541906170057
110, -183417.98, -179764.25, -182023.38, -179447.55, -183543.58, -183623.73, -183605.02, 187500.00, 0.000, 0.000, 0.000, 22:16:10.057, 1541906170057
111, -183416.83, -179763.25, -182020.33, -179441.34, -183542.33, -183622.53, -183603.73, 187500.00, 0.000, 0.000, 0.000, 22:16:10.057, 1541906170057
112, -183406.31, -179713.45, -181960.19, -179382.42, -183531.86, -183612.05, -183593.13, 187500.00, 0.000, 0.000, 0.000, 22:16:10.059, 1541906170059
113, -183411.61, -179737.69, -181991.27, -179413.83, -183537.19, -183617.34, -183598.47, 187500.00, 0.000, 0.000, 0.000, 22:16:10.060, 1541906170060
114, -183421.67, -179796.11, -182060.97, -179479.34, -183547.20, -183627.39, -183608.47, 187500.00, -0.014, 0.460, 0.870, 22:16:10.060, 1541906170060
115, -183424.36, -179809.70, -182076.88, -179489.52, -183549.81, -183629.98, -183611.03, 187500.00, 0.000, 0.000, 0.000, 22:16:10.061, 1541906170061
116, -183417.73, -179761.08, -182019.64, -179431.11, -183543.16, -183623.31, -183604.36, 187500.00, 0.000, 0.000, 0.000, 22:16:10.061, 1541906170061
117, -183418.91, -179772.14, -182034.59, -179446.55, -183544.31, -183624.53, -183605.61, 187500.00, 0.000, 0.000, 0.000, 22:16:10.063, 1541906170063
118, -183428.25, -179835.14, -182108.66, -179516.67, -183553.77, -183633.95, -183615.08, 187500.00, 0.000, 0.000, 0.000, 22:16:10.067, 1541906170067
119, -183434.53, -179862.67, -182139.53, -179543.11, -183560.03, -183640.16, -183621.36, 187500.00, 0.000, 0.000, 0.000, 22:16:10.068, 1541906170068
120, -183425.20, -179817.00, -182085.00, -179488.13, -183550.78, -183630.77, -183612.11, 187500.00, 0.000, 0.000, 0.000, 22:16:10.479, 1541906170479
121, -183423.84, -179811.19, -182080.13, -179483.88, -183549.38, -183629.31, -183610.66, 187500.00, 0.000, 0.000, 0.000, 22:16:10.479, 1541906170479
122, -183432.92, -179874.67, -182156.63, -179556.42, -183558.36, -183638.38, -183619.66, 187500.00, 0.000, 0.000, 0.000, 22:16:10.480, 1541906170480
123, -183439.48, -179916.19, -182204.91, -179600.34, -183564.97, -183645.03, -183626.28, 187500.00, 0.000, 0.000, 0.000, 22:16:10.481, 1541906170481
124, -183433.88, -179883.53, -182166.33, -179558.28, -183559.34, -183639.41, -183620.67, 187500.00, 0.008, 0.490, 0.900, 22:16:10.482, 1541906170482
125, -183428.00, -179862.27, -182142.22, -179534.91, -183553.38, -183633.44, -183614.75, 187500.00, 0.000, 0.000, 0.000, 22:16:10.483, 1541906170483
126, -183439.44, -179922.97, -182215.53, -179605.73, -183564.80, -183644.88, -183626.14, 187500.00, 0.000, 0.000, 0.000, 22:16:10.483, 1541906170483
127, -183448.22, -179974.25, -182276.03, -179660.67, -183573.78, -183653.84, -183635.11, 187500.00, 0.000, 0.000, 0.000, 22:16:10.485, 1541906170485
128, -183442.70, -179953.00, -182250.28, -179631.80, -183568.14, -183648.20, -183629.44, 187500.00, 0.000, 0.000, 0.000, 22:16:10.486, 1541906170486
129, -183436.33, -179917.14, -182208.23, -179591.03, -183561.73, -183641.86, -183623.08, 187500.00, 0.000, 0.000, 0.000, 22:16:10.487, 1541906170487
130, -183444.92, -179970.14, -182271.58, -179653.13, -183570.42, -183650.53, -183631.69, 187500.00, 0.000, 0.000, 0.000, 22:16:10.487, 1541906170487
131, -183455.61, -180029.58, -182342.13, -179718.06, -183580.95, -183661.13, -183642.23, 187500.00, 0.000, 0.000, 0.000, 22:16:10.488, 1541906170488
132, -183456.31, -180024.63, -182337.03, -179707.92, -183581.47, -183661.81, -183642.91, 187500.00, 0.000, 0.000, 0.000, 22:16:10.489, 1541906170489
133, -183446.39, -179979.50, -182284.38, -179656.25, -183571.66, -183651.84, -183633.00, 187500.00, 0.000, 0.000, 0.000, 22:16:10.490, 1541906170490
134, -183453.02, -180021.97, -182335.41, -179705.92, -183578.36, -183658.47, -183639.67, 187500.00, 0.002, 0.586, 0.852, 22:16:10.491, 1541906170491
135, -183464.81, -180088.33, -182413.55, -179777.75, -183590.06, -183670.22, -183651.45, 187500.00, 0.000, 0.000, 0.000, 22:16:10.492, 1541906170492
136, -183467.34, -180097.56, -182423.02, -179783.20, -183592.58, -183672.64, -183653.91, 187500.00, 0.000, 0.000, 0.000, 22:16:10.494, 1541906170494
137, -183457.48, -180048.33, -182364.61, -179725.55, -183582.78, -183662.94, -183644.19, 187500.00, 0.000, 0.000, 0.000, 22:16:10.494, 1541906170494
138, -183460.83, -180077.36, -182398.98, -179759.67, -183586.03, -183666.22, -183647.45, 187500.00, 0.000, 0.000, 0.000, 22:16:10.495, 1541906170495
139, -183472.44, -180148.77, -182483.80, -179838.98, -183597.83, -183677.84, -183659.00, 187500.00, 0.000, 0.000, 0.000, 22:16:10.495, 1541906170495
140, -183479.23, -180175.03, -182515.48, -179864.22, -183604.52, -183684.55, -183665.63, 187500.00, 0.000, 0.000, 0.000, 22:16:10.495, 1541906170495
141, -183470.53, -180127.61, -182459.70, -179806.20, -183595.91, -183675.86, -183656.98, 187500.00, 0.000, 0.000, 0.000, 22:16:10.496, 1541906170496
142, -183471.69, -180138.72, -182471.34, -179819.80, -183597.05, -183677.17, -183658.28, 187500.00, 0.000, 0.000, 0.000, 22:16:10.497, 1541906170497
143, -183482.38, -180210.20, -182556.28, -179899.95, -183607.70, -183687.84, -183669.00, 187500.00, -0.008, 0.642, 0.718, 22:16:10.497, 1541906170497
144, -183490.27, -180247.02, -182600.27, -179939.31, -183615.42, -183695.53, -183676.75, 187500.00, 0.000, 0.000, 0.000, 22:16:10.497, 1541906170497
145, -183482.69, -180204.63, -182550.95, -179889.14, -183607.80, -183687.97, -183669.06, 187500.00, 0.000, 0.000, 0.000, 22:16:10.497, 1541906170497
146, -183479.05, -180196.11, -182539.52, -179879.95, -183604.28, -183684.47, -183665.53, 187500.00, 0.000, 0.000, 0.000, 22:16:10.497, 1541906170497
147, -183491.97, -180267.38, -182621.64, -179958.58, -183616.98, -183697.16, -183678.27, 187500.00, 0.000, 0.000, 0.000, 22:16:10.497, 1541906170497
148, -183500.81, -180318.72, -182682.34, -180012.55, -183625.83, -183706.03, -183687.13, 187500.00, 0.000, 0.000, 0.000, 22:16:10.497, 1541906170497
149, -183497.13, -180288.41, -182648.34, -179974.09, -183622.23, -183702.36, -183683.52, 187500.00, 0.000, 0.000, 0.000, 22:16:10.497, 1541906170497
150, -183491.03, -180260.53, -182614.78, -179942.63, -183616.09, -183696.17, -183677.33, 187500.00, 0.000, 0.000, 0.000, 22:16:10.498, 1541906170498
151, -183500.42, -180323.42, -182688.31, -180014.39, -183625.45, -183705.67, -183686.72, 187500.00, 0.000, 0.000, 0.000, 22:16:10.498, 1541906170498
152, -183509.97, -180381.95, -182755.61, -180076.98, -183635.02, -183715.27, -183696.22, 187500.00, 0.000, 0.000, 0.000, 22:16:10.498, 1541906170498
153, -183505.45, -180363.78, -182735.92, -180052.19, -183630.55, -183710.75, -183691.80, 187500.00, 0.014, 0.676, 0.672, 22:16:10.498, 1541906170498
154, -183497.06, -180318.09, -182682.14, -179999.94, -183622.14, -183702.34, -183683.41, 187500.00, 0.000, 0.000, 0.000, 22:16:10.498, 1541906170498
155, -183505.16, -180369.50, -182741.03, -180058.56, -183630.17, -183710.34, -183691.41, 187500.00, 0.000, 0.000, 0.000, 22:16:10.498, 1541906170498
156, -183517.66, -180435.97, -182817.95, -180131.05, -183642.59, -183722.80, -183703.89, 187500.00, 0.000, 0.000, 0.000, 22:16:10.498, 1541906170498
157, -183517.83, -180432.14, -182815.89, -180122.23, -183642.80, -183722.91, -183704.06, 187500.00, 0.000, 0.000, 0.000, 22:16:10.516, 1541906170516
158, -183507.02, -180373.70, -182748.91, -180054.63, -183632.06, -183712.09, -183693.27, 187500.00, 0.000, 0.000, 0.000, 22:16:10.517, 1541906170517
159, -183510.98, -180408.67, -182786.53, -180094.53, -183636.09, -183716.14, -183697.17, 187500.00, 0.000, 0.000, 0.000, 22:16:10.517, 1541906170517
160, -183524.89, -180478.06, -182865.27, -180170.83, -183649.80, -183729.92, -183710.92, 187500.00, 0.000, 0.000, 0.000, 22:16:10.518, 1541906170518
161, -183527.19, -180489.02, -182879.42, -180179.86, -183652.14, -183732.25, -183713.27, 187500.00, 0.000, 0.000, 0.000, 22:16:10.518, 1541906170518
162, -183514.81, -180425.89, -182807.92, -180107.73, -183639.73, -183719.70, -183700.98, 187500.00, 0.000, 0.000, 0.000, 22:16:10.519, 1541906170519
163, -183518.66, -180442.86, -182825.58, -180127.30, -183643.58, -183723.64, -183704.83, 187500.00, 0.018, 0.714, 0.574, 22:16:10.519, 1541906170519
164, -183530.44, -180517.69, -182910.89, -180209.48, -183655.41, -183735.53, -183716.64, 187500.00, 0.000, 0.000, 0.000, 22:16:10.519, 1541906170519
165, -183534.39, -180545.67, -182944.86, -180237.63, -183659.30, -183739.48, -183720.52, 187500.00, 0.000, 0.000, 0.000, 22:16:10.520, 1541906170520
166, -183524.17, -180486.53, -182879.98, -180168.28, -183649.02, -183729.19, -183710.23, 187500.00, 0.000, 0.000, 0.000, 22:16:10.520, 1541906170520
167, -183524.95, -180482.55, -182872.06, -180164.53, -183649.86, -183729.97, -183711.02, 187500.00, 0.000, 0.000, 0.000, 22:16:10.521, 1541906170521
168, -183537.03, -180555.91, -182953.61, -180246.41, -183661.89, -183742.06, -183723.00, 187500.00, 0.000, 0.000, 0.000, 22:16:10.521, 1541906170521
169, -183545.83, -180598.78, -183002.11, -180291.42, -183670.58, -183750.83, -183731.80, 187500.00, 0.000, 0.000, 0.000, 22:16:10.522, 1541906170522
170, -183538.08, -180549.16, -182948.94, -180232.72, -183662.83, -183743.02, -183724.00, 187500.00, 0.000, 0.000, 0.000, 22:16:10.523, 1541906170523
171, -183530.38, -180525.63, -182919.09, -180205.39, -183655.27, -183735.47, -183716.42, 187500.00, 0.000, 0.000, 0.000, 22:16:10.524, 1541906170524
172, -183541.83, -180598.94, -182999.83, -180286.55, -183666.56, -183746.83, -183727.91, 187500.00, 0.000, 0.000, 0.000, 22:16:10.525, 1541906170525
173, -183553.33, -180655.70, -183065.30, -180348.27, -183678.00, -183758.20, -183739.31, 187500.00, -0.044, 0.768, 0.498, 22:16:10.526, 1541906170526
174, -183548.77, -180620.66, -183031.23, -180305.91, -183673.48, -183753.64, -183734.64, 187500.00, 0.000, 0.000, 0.000, 22:16:10.526, 1541906170526
175, -183539.88, -180577.14, -182979.28, -180255.33, -183664.59, -183744.75, -183725.80, 187500.00, 0.000, 0.000, 0.000, 22:16:10.527, 1541906170527
176, -183549.91, -180641.97, -183047.30, -180328.28, -183674.63, -183754.88, -183735.84, 187500.00, 0.000, 0.000, 0.000, 22:16:10.527, 1541906170527
177, -183560.77, -180713.80, -183126.00, -180405.81, -183685.47, -183765.63, -183746.59, 187500.00, 0.000, 0.000, 0.000, 22:16:10.527, 1541906170527
178, -183557.08, -180697.03, -183114.06, -180385.56, -183681.80, -183761.89, -183742.86, 187500.00, 0.000, 0.000, 0.000, 22:16:10.528, 1541906170528
179, -183548.73, -180632.20, -183041.83, -180312.48, -183673.59, -183753.66, -183734.59, 187500.00, 0.000, 0.000, 0.000, 22:16:10.528, 1541906170528
180, -183557.48, -180675.84, -183085.97, -180361.55, -183682.36, -183762.47, -183743.38, 187500.00, 0.000, 0.000, 0.000, 22:16:10.529, 1541906170529
181, -183569.94, -180742.55, -183160.45, -180435.08, -183694.70, -183774.81, -183755.72, 187500.00, 0.000, 0.000, 0.000, 22:16:10.530, 1541906170530
182, -183568.66, -180735.95, -183158.61, -180425.16, -183693.41, -183773.48, -183754.47, 187500.00, 0.000, 0.000, 0.000, 22:16:10.531, 1541906170531
183, -183555.11, -180660.58, -183077.25, -180339.28, -183679.80, -183759.86, -183740.81, 187500.00, -0.102, 0.754, 0.442, 22:16:10.532, 1541906170532
184, -183558.55, -180687.81, -183100.95, -180370.17, -183683.30, -183763.36, -183744.31, 187500.00, 0.000, 0.000, 0.000, 22:16:10.533, 1541906170533
185, -183573.23, -180764.34, -183184.00, -180455.22, -183697.89, -183778.05, -183759.03, 187500.00, 0.000, 0.000, 0.000, 22:16:10.534, 1541906170534
186, -183577.47, -180778.16, -183204.17, -180469.30, -183702.19, -183782.23, -183763.25, 187500.00, 0.000, 0.000, 0.000, 22:16:10.534, 1541906170534
187, -183562.83, -180701.64, -183125.05, -180382.86, -183687.48, -183767.59, -183748.59, 187500.00, 0.000, 0.000, 0.000, 22:16:10.535, 1541906170535
188, -183565.61, -180705.78, -183124.94, -180388.30, -183690.39, -183770.45, -183751.47, 187500.00, 0.000, 0.000, 0.000, 22:16:10.535, 1541906170535
189, -183579.31, -180778.13, -183203.00, -180469.63, -183704.05, -183784.11, -183765.11, 187500.00, 0.000, 0.000, 0.000, 22:16:10.535, 1541906170535
190, -183583.08, -180800.55, -183232.80, -180493.95, -183707.80, -183787.91, -183768.77, 187500.00, 0.000, 0.000, 0.000, 22:16:10.535, 1541906170535
191, -183568.39, -180719.14, -183151.28, -180403.30, -183693.14, -183773.25, -183754.11, 187500.00, 0.000, 0.000, 0.000, 22:16:10.535, 1541906170535
192, -183562.95, -180690.41, -183113.39, -180372.16, -183687.77, -183767.78, -183748.67, 187500.00, -0.004, 0.718, 0.322, 22:16:10.535, 1541906170535
193, -183575.42, -180757.36, -183184.09, -180447.89, -183700.16, -183780.13, -183761.17, 187500.00, 0.000, 0.000, 0.000, 22:16:10.535, 1541906170535
194, -183580.14, -180792.03, -183227.22, -180487.47, -183704.78, -183784.78, -183765.73, 187500.00, 0.000, 0.000, 0.000, 22:16:10.535, 1541906170535
195, -183568.98, -180722.75, -183160.05, -180409.64, -183693.80, -183773.83, -183754.73, 187500.00, 0.000, 0.000, 0.000, 22:16:10.535, 1541906170535
196, -183562.42, -180679.92, -183107.77, -180362.81, -183687.19, -183767.30, -183748.20, 187500.00, 0.000, 0.000, 0.000, 22:16:10.535, 1541906170535
197, -183582.78, -180793.64, -183225.69, -180496.16, -183707.44, -183787.50, -183768.48, 187500.00, 0.000, 0.000, 0.000, 22:16:10.535, 1541906170535
198, -183597.56, -180877.16, -183323.02, -180593.33, -183722.28, -183802.33, -183783.39, 187500.00, 0.000, 0.000, 0.000, 22:16:10.536, 1541906170536
199, -183590.56, -180826.30, -183279.88, -180536.28, -183715.38, -183795.48, -183776.48, 187500.00, 0.000, 0.000, 0.000, 22:16:10.536, 1541906170536
200, -183573.80, -180746.08, -183190.33, -180446.20, -183698.52, -183778.67, -183759.63, 187500.00, 0.000, 0.000, 0.000, 22:16:10.536, 1541906170536
201, -183585.17, -180801.05, -183244.17, -180509.02, -183709.81, -183789.94, -183770.84, 187500.00, 0.000, 0.000, 0.000, 22:16:10.536, 1541906170536
202, -183599.92, -180869.42, -183320.64, -180586.23, -183724.56, -183804.58, -183785.56, 187500.00, 0.016, 0.870, 0.356, 22:16:10.536, 1541906170536
203, -183595.44, -180836.84, -183297.63, -180551.33, -183720.05, -183800.06, -183781.05, 187500.00, 0.000, 0.000, 0.000, 22:16:10.536, 1541906170536
204, -183578.80, -180741.09, -183195.19, -180443.44, -183703.55, -183783.56, -183764.50, 187500.00, 0.000, 0.000, 0.000, 22:16:10.536, 1541906170536
205, -183584.69, -180776.14, -183225.83, -180484.03, -183709.39, -183789.42, -183770.41, 187500.00, 0.000, 0.000, 0.000, 22:16:10.536, 1541906170536
206, -183597.64, -180850.38, -183306.72, -180569.44, -183722.45, -183802.45, -183783.45, 187500.00, 0.000, 0.000, 0.000, 22:16:10.536, 1541906170536
207, -183592.59, -180838.89, -183305.28, -180556.61, -183717.45, -183797.52, -183778.39, 187500.00, 0.000, 0.000, 0.000, 22:16:10.536, 1541906170536
208, -183575.14, -180732.16, -183194.95, -180437.00, -183699.95, -183780.06, -183761.00, 187500.00, 0.000, 0.000, 0.000, 22:16:10.536, 1541906170536
209, -183576.86, -180741.81, -183196.64, -180449.25, -183701.66, -183781.64, -183762.61, 187500.00, 0.000, 0.000, 0.000, 22:16:10.537, 1541906170537
210, -183590.94, -180819.97, -183280.59, -180538.88, -183715.73, -183795.75, -183776.70, 187500.00, 0.000, 0.000, 0.000, 22:16:10.537, 1541906170537
211, -183594.31, -180829.56, -183300.14, -180551.00, -183719.06, -183798.98, -183780.00, 187500.00, 0.000, 0.000, 0.000, 22:16:10.537, 1541906170537
212, -183575.47, -180724.38, -183195.36, -180434.73, -183700.20, -183780.13, -183761.27, 187500.00, 0.000, 0.956, 0.432, 22:16:10.537, 1541906170537
213, -183573.78, -180706.84, -183167.94, -180415.70, -183698.47, -183778.45, -183759.66, 187500.00, 0.000, 0.000, 0.000, 22:16:10.537, 1541906170537
214, -183588.94, -180786.33, -183251.69, -180506.88, -183713.55, -183793.61, -183774.72, 187500.00, 0.000, 0.000, 0.000, 22:16:10.537, 1541906170537
215, -183593.83, -180814.77, -183290.48, -180540.55, -183718.34, -183798.56, -183779.61, 187500.00, 0.000, 0.000, 0.000, 22:16:10.537, 1541906170537
216, -183577.47, -180715.20, -183192.75, -180430.41, -183702.03, -183782.23, -183763.30, 187500.00, 0.000, 0.000, 0.000, 22:16:10.537, 1541906170537
217, -183570.06, -180667.22, -183133.25, -180377.78, -183694.77, -183774.89, -183756.02, 187500.00, 0.000, 0.000, 0.000, 22:16:10.537, 1541906170537
218, -183584.11, -180748.63, -183217.59, -180470.14, -183708.73, -183788.86, -183769.98, 187500.00, 0.000, 0.000, 0.000, 22:16:10.538, 1541906170538
219, -183594.14, -180801.17, -183280.92, -180530.41, -183718.70, -183798.92, -183779.95, 187500.00, 0.000, 0.000, 0.000, 22:16:10.538, 1541906170538
220, -183583.56, -180724.42, -183210.00, -180445.38, -183708.25, -183788.44, -183769.47, 187500.00, 0.000, 0.000, 0.000, 22:16:10.538, 1541906170538
221, -183568.95, -180650.34, -183125.20, -180363.64, -183693.67, -183773.83, -183754.83, 187500.00, 0.000, 0.000, 0.000, 22:16:10.538, 1541906170538
222, -183583.08, -180726.98, -183202.95, -180449.69, -183707.81, -183787.92, -183768.92, 187500.00, 0.004, 0.852, 0.350, 22:16:10.538, 1541906170538
223, -183595.36, -180799.39, -183284.20, -180531.61, -183719.95, -183800.11, -183781.16, 187500.00, 0.000, 0.000, 0.000, 22:16:10.538, 1541906170538
224, -183583.61, -180746.02, -183239.13, -180473.28, -183708.17, -183788.36, -183769.38, 187500.00, 0.000, 0.000, 0.000, 22:16:10.538, 1541906170538
225, -183565.86, -180649.45, -183132.47, -180365.31, -183690.52, -183770.72, -183751.81, 187500.00, 0.000, 0.000, 0.000, 22:16:10.538, 1541906170538
226, -183576.59, -180711.28, -183191.00, -180433.88, -183701.25, -183781.42, -183762.42, 187500.00, 0.000, 0.000, 0.000, 22:16:10.538, 1541906170538
227, -183593.41, -180799.83, -183288.14, -180532.80, -183717.97, -183798.13, -183779.05, 187500.00, 0.000, 0.000, 0.000, 22:16:10.538, 1541906170538
228, -183588.48, -180778.42, -183276.50, -180509.64, -183713.09, -183793.31, -183774.30, 187500.00, 0.000, 0.000, 0.000, 22:16:10.539, 1541906170539
229, -183568.83, -180670.03, -183161.75, -180388.34, -183693.47, -183773.73, -183754.73, 187500.00, 0.000, 0.000, 0.000, 22:16:10.539, 1541906170539
230, -183574.38, -180711.14, -183195.97, -180433.38, -183699.06, -183779.19, -183760.30, 187500.00, 0.000, 0.000, 0.000, 22:16:10.539, 1541906170539
231, -183591.56, -180808.03, -183300.08, -180541.72, -183716.17, -183796.36, -183777.41, 187500.00, 0.128, 0.840, 0.430, 22:16:10.539, 1541906170539
232, -183592.06, -180811.22, -183314.19, -180546.23, -183716.73, -183796.91, -183777.89, 187500.00, 0.000, 0.000, 0.000, 22:16:10.539, 1541906170539
233, -183571.94, -180696.44, -183197.39, -180417.95, -183696.63, -183776.84, -183757.81, 187500.00, 0.000, 0.000, 0.000, 22:16:10.539, 1541906170539
234, -183573.44, -180703.23, -183194.02, -180426.52, -183698.00, -183778.08, -183759.19, 187500.00, 0.000, 0.000, 0.000, 22:16:10.539, 1541906170539
235, -183589.41, -180801.27, -183296.84, -180536.94, -183713.94, -183794.14, -183775.19, 187500.00, 0.000, 0.000, 0.000, 22:16:10.539, 1541906170539
236, -183593.95, -180828.36, -183336.58, -180568.53, -183718.69, -183798.81, -183779.81, 187500.00, 0.000, 0.000, 0.000, 22:16:10.540, 1541906170540
237, -183577.53, -180718.88, -183229.58, -180448.23, -183702.20, -183782.34, -183763.39, 187500.00, 0.000, 0.000, 0.000, 22:16:10.540, 1541906170540
238, -183571.66, -180692.38, -183188.88, -180418.61, -183696.23, -183776.42, -183757.53, 187500.00, 0.000, 0.000, 0.000, 22:16:10.540, 1541906170540
239, -183586.81, -180787.25, -183286.48, -180524.75, -183711.47, -183791.50, -183772.66, 187500.00, 0.000, 0.000, 0.000, 22:16:10.540, 1541906170540
240, -183594.92, -180835.34, -183345.14, -180578.50, -183719.48, -183799.59, -183780.64, 187500.00, 0.000, 0.000, 0.000, 22:16:10.960, 1541906170960
241, -183581.20, -180743.95, -183260.42, -180476.78, -183705.83, -183786.03, -183766.92, 187500.00, 0.308, 0.854, 0.588, 22:16:10.960, 1541906170960
242, -183570.52, -180687.52, -183191.53, -180414.27, -183695.25, -183775.30, -183756.30, 187500.00, 0.000, 0.000, 0.000, 22:16:10.960, 1541906170960
243, -183586.97, -180778.05, -183280.97, -180514.27, -183711.59, -183791.66, -183772.70, 187500.00, 0.000, 0.000, 0.000, 22:16:10.960, 1541906170960
244, -183600.03, -180851.13, -183361.88, -180594.52, -183724.67, -183804.78, -183785.67, 187500.00, 0.000, 0.000, 0.000, 22:16:10.961, 1541906170961
245, -183586.58, -180785.28, -183307.91, -180522.61, -183711.27, -183791.38, -183772.30, 187500.00, 0.000, 0.000, 0.000, 22:16:10.961, 1541906170961
246, -183573.80, -180702.22, -183214.83, -180431.09, -183698.41, -183778.55, -183759.52, 187500.00, 0.000, 0.000, 0.000, 22:16:10.961, 1541906170961
247, -183586.16, -180780.72, -183287.06, -180516.38, -183710.75, -183790.83, -183771.83, 187500.00, 0.000, 0.000, 0.000, 22:16:10.961, 1541906170961
248, -183599.84, -180866.63, -183378.94, -180611.34, -183724.38, -183804.48, -183785.47, 187500.00, 0.000, 0.000, 0.000, 22:16:10.961, 1541906170961
249, -183593.41, -180828.63, -183353.30, -180569.39, -183717.97, -183798.03, -183779.03, 187500.00, 0.000, 0.000, 0.000, 22:16:10.961, 1541906170961
250, -183575.98, -180727.33, -183245.88, -180457.05, -183700.58, -183780.70, -183761.70, 187500.00, 0.000, 0.000, 0.000, 22:16:10.964, 1541906170964
251, -183585.80, -180784.56, -183293.81, -180519.80, -183710.34, -183790.45, -183771.45, 187500.00, 0.332, 0.752, 0.602, 22:16:10.964, 1541906170964
252, -183600.91, -180879.97, -183394.53, -180625.30, -183725.39, -183805.58, -183786.59, 187500.00, 0.000, 0.000, 0.000, 22:16:10.964, 1541906170964
253, -183599.39, -180869.11, -183397.67, -180613.11, -183723.88, -183804.11, -183785.17, 187500.00, 0.000, 0.000, 0.000, 22:16:10.964, 1541906170964
254, -183580.75, -180757.59, -183284.64, -180490.20, -183705.30, -183785.47, -183766.52, 187500.00, 0.000, 0.000, 0.000, 22:16:10.964, 1541906170964
255, -183583.50, -180789.75, -183303.94, -180524.95, -183707.95, -183788.02, -183769.23, 187500.00, 0.000, 0.000, 0.000, 22:16:10.965, 1541906170965
0, -183599.72, -180890.73, -183407.36, -180636.38, -183724.30, -183804.31, -183785.45, 187500.00, 0.000, 0.000, 0.000, 22:16:10.965, 1541906170965
1, -183602.50, -180907.39, -183437.39, -180654.55, -183727.09, -183807.16, -183788.20, 187500.00, 0.000, 0.000, 0.000, 22:16:10.965, 1541906170965
2, -183585.67, -180799.00, -183333.98, -180534.36, -183710.36, -183790.50, -183771.56, 187500.00, 0.000, 0.000, 0.000, 22:16:10.965, 1541906170965
3, -183586.06, -180802.09, -183322.50, -180537.94, -183710.84, -183790.92, -183771.91, 187500.00, 0.000, 0.000, 0.000, 22:16:10.965, 1541906170965
4, -183601.36, -180906.45, -183425.45, -180653.08, -183725.91, -183806.03, -183786.98, 187500.00, 0.000, 0.000, 0.000, 22:16:10.966, 1541906170966
5, -183606.41, -180946.33, -183476.88, -180696.41, -183730.89, -183811.02, -183791.89, 187500.00, 0.242, 0.686, 0.648, 22:16:10.966, 1541906170966
6, -183591.75, -180846.89, -183389.59, -180586.28, -183716.27, -183796.36, -183777.28, 187500.00, 0.000, 0.000, 0.000, 22:16:10.967, 1541906170967
7, -183586.53, -180814.86, -183342.97, -180550.95, -183711.08, -183791.23, -183772.19, 187500.00, 0.000, 0.000, 0.000, 22:16:10.967, 1541906170967
8, -183600.83, -180909.30, -183432.83, -180655.98, -183725.34, -183805.41, -183786.31, 187500.00, 0.000, 0.000, 0.000, 22:16:10.967, 1541906170967
9, -183608.22, -180964.72, -183498.14, -180717.63, -183732.86, -183812.73, -183793.83, 187500.00, 0.000, 0.000, 0.000, 22:16:10.967, 1541906170967
10, -183594.52, -180881.69, -183432.13, -180626.39, -183719.08, -183799.02, -183780.13, 187500.00, 0.000, 0.000, 0.000, 22:16:10.968, 1541906170968
11, -183585.89, -180820.17, -183357.56, -180558.13, -183710.44, -183790.47, -183771.52, 187500.00, 0.000, 0.000, 0.000, 22:16:10.968, 1541906170968
12, -183598.11, -180907.75, -183436.05, -180653.77, -183722.55, -183802.56, -183783.61, 187500.00, 0.000, 0.000, 0.000, 22:16:10.968, 1541906170968
13, -183608.47, -180981.17, -183516.16, -180734.55, -183732.72, -183812.78, -183793.78, 187500.00, 0.000, 0.000, 0.000, 22:16:10.968, 1541906170968
14, -183599.77, -180925.61, -183479.67, -180673.70, -183724.20, -183804.25, -183785.22, 187500.00, 0.000, 0.000, 0.000, 22:16:10.968, 1541906170968
15, -183588.38, -180843.69, -183390.06, -180582.52, -183712.83, -183792.94, -183773.88, 187500.00, 0.230, 0.632, 0.780, 22:16:10.968, 1541906170968
16, -183598.97, -180917.72, -183450.23, -180664.16, -183723.42, -183803.50, -183784.39, 187500.00, 0.000, 0.000, 0.000, 22:16:10.968, 1541906170968
17, -183611.80, -181006.61, -183543.59, -180761.86, -183736.14, -183816.25, -183797.06, 187500.00, 0.000, 0.000, 0.000, 22:16:10.969, 1541906170969
18, -183609.03, -180982.41, -183535.95, -180733.55, -183733.41, -183813.56, -183794.41, 187500.00, 0.000, 0.000, 0.000, 22:16:10.969, 1541906170969
19, -183594.27, -180887.50, -183439.95, -180627.81, -183718.72, -183798.88, -183779.77, 187500.00, 0.000, 0.000, 0.000, 22:16:10.969, 1541906170969
20, -183600.63, -180943.06, -183478.89, -180689.75, -183725.03, -183805.19, -183786.11, 187500.00, 0.000, 0.000, 0.000, 22:16:10.969, 1541906170969
21, -183615.64, -181042.91, -183579.31, -180800.06, -183740.08, -183820.19, -183801.14, 187500.00, 0.000, 0.000, 0.000, 22:16:10.969, 1541906170969
22, -183614.92, -181045.30, -183595.77, -180800.73, -183739.31, -183819.41, -183800.41, 187500.00, 0.000, 0.000, 0.000, 22:16:10.969, 1541906170969
23, -183597.17, -180933.83, -183494.31, -180678.00, -183721.63, -183801.66, -183782.66, 187500.00, 0.000, 0.000, 0.000, 22:16:10.970, 1541906170970
24, -183600.42, -180956.41, -183498.03, -180703.19, -183724.88, -183804.94, -183785.92, 187500.00, 0.150, 0.610, 0.808, 22:16:10.970, 1541906170970
25, -183616.27, -181061.58, -183594.89, -180817.61, -183740.61, -183820.67, -183801.78, 187500.00, 0.000, 0.000, 0.000, 22:16:10.970, 1541906170970
26, -183621.03, -181086.03, -183626.77, -180844.69, -183745.42, -183825.50, -183806.64, 187500.00, 0.000, 0.000, 0.000, 22:16:10.970, 1541906170970
27, -183603.02, -180975.97, -183540.38, -180722.97, -183727.63, -183807.59, -183788.69, 187500.00, 0.000, 0.000, 0.000, 22:16:10.970, 1541906170970
28, -183601.27, -180964.88, -183514.05, -180711.70, -183725.66, -183805.67, -183786.81, 187500.00, 0.000, 0.000, 0.000, 22:16:10.970, 1541906170970
29, -183615.48, -181067.50, -183599.72, -180823.58, -183739.84, -183819.89, -183801.03, 187500.00, 0.000, 0.000, 0.000, 22:16:10.970, 1541906170970
30, -183622.75, -181113.27, -183637.92, -180873.59, -183747.06, -183827.06, -183808.31, 187500.00, 0.000, 0.000, 0.000, 22:16:10.971, 1541906170971
31, -183608.72, -181014.56, -183575.05, -180765.50, -183733.03, -183813.05, -183794.28, 187500.00, 0.000, 0.000, 0.000, 22:16:10.971, 1541906170971
32, -183599.88, -180967.61, -183522.88, -180714.31, -183724.34, -183804.38, -183785.47, 187500.00, 0.000, 0.000, 0.000, 22:16:10.971, 1541906170971
33, -183613.45, -181062.52, -183596.47, -180817.09, -183737.84, -183817.92, -183799.08, 187500.00, 0.000, 0.000, 0.000, 22:16:10.971, 1541906170971
34, -183622.38, -181127.06, -183640.47, -180887.16, -183746.59, -183826.75, -183807.80, 187500.00, 0.102, 0.562, 0.726, 22:16:10.971, 1541906170971
35, -183613.36, -181048.98, -183600.95, -180802.19, -183737.64, -183817.81, -183798.86, 187500.00, 0.000, 0.000, 0.000, 22:16:10.972, 1541906170972
36, -183602.45, -180972.06, -183535.17, -180719.41, -183726.81, -183806.88, -183787.97, 187500.00, 0.000, 0.000, 0.000, 22:16:10.972, 1541906170972
37, -183615.03, -181053.28, -183595.08, -180809.05, -183739.33, -183819.38, -183800.48, 187500.00, 0.000, 0.000, 0.000, 22:16:10.972, 1541906170972
38, -183624.22, -181131.89, -183642.69, -180894.66, -183748.45, -183828.56, -183809.70, 187500.00, 0.000, 0.000, 0.000, 22:16:10.972, 1541906170972
39, -183615.75, -181079.91, -183619.27, -180837.61, -183740.08, -183820.22, -183801.41, 187500.00, 0.000, 0.000, 0.000, 22:16:10.973, 1541906170973
40, -183600.84, -180977.47, -183546.33, -180726.86, -183725.14, -183805.34, -183786.41, 187500.00, 0.000, 0.000, 0.000, 22:16:10.973, 1541906170973
41, -183608.20, -181039.44, -183586.47, -180795.77, -183732.55, -183812.69, -183793.66, 187500.00, 0.000, 0.000, 0.000, 22:16:10.973, 1541906170973
42, -183623.98, -181130.17, -183642.23, -180895.28, -183748.28, -183828.36, -183809.39, 187500.00, 0.000, 0.000, 0.000, 22:16:10.974, 1541906170974
43, -183621.39, -181107.73, -183635.91, -180870.80, -183745.66, -183825.75, -183806.88, 187500.00, 0.000, 0.000, 0.000, 22:16:10.974, 1541906170974
44, -183602.66, -180996.23, -183568.64, -180749.20, -183727.00, -183807.11, -183788.17, 187500.00, 0.008, 0.514, 0.700, 22:16:10.974, 1541906170974
45, -183608.89, -181033.86, -183588.44, -180792.39, -183733.20, -183813.41, -183794.44, 187500.00, 0.000, 0.000, 0.000, 22:16:10.975, 1541906170975
46, -183622.86, -181132.14, -183641.48, -180900.80, -183747.06, -183827.27, -183808.38, 187500.00, 0.000, 0.000, 0.000, 22:16:10.975, 1541906170975
47, -183622.70, -181137.86, -183644.09, -180906.94, -183746.91, -183827.09, -183808.16, 187500.00, 0.000, 0.000, 0.000, 22:16:10.975, 1541906170975
48, -183606.81, -181021.81, -183591.70, -180781.17, -183731.05, -183811.27, -183792.31, 187500.00, 0.000, 0.000, 0.000, 22:16:10.975, 1541906170975
49, -183609.67, -181028.89, -183591.33, -180790.30, -183733.97, -183814.08, -183795.23, 187500.00, 0.000, 0.000, 0.000, 22:16:10.975, 1541906170975
50, -183624.02, -181127.47, -183642.02, -180899.14, -183748.16, -183828.34, -183809.44, 187500.00, 0.000, 0.000, 0.000, 22:16:10.975, 1541906170975
51, -183627.59, -181156.64, -183652.14, -180930.66, -183751.77, -183831.94, -183813.00, 187500.00, 0.000, 0.000, 0.000, 22:16:10.976, 1541906170976
52, -183613.83, -181050.00, -183614.02, -180813.56, -183738.02, -183818.22, -183799.28, 187500.00, 0.000, 0.000, 0.000, 22:16:10.976, 1541906170976
53, -183609.83, -181022.06, -183594.41, -180785.31, -183734.03, -183814.33, -183795.30, 187500.00, 0.000, 0.000, 0.000, 22:16:10.976, 1541906170976
54, -183622.69, -181114.33, -183639.59, -180887.25, -183746.91, -183827.06, -183808.20, 187500.00, -0.006, 0.500, 0.880, 22:16:10.976, 1541906170976
55, -183628.94, -181161.44, -183654.33, -180937.13, -183753.13, -183833.28, -183814.45, 187500.00, 0.000, 0.000, 0.000, 22:16:10.976, 1541906170976
56, -183615.13, -181068.09, -183622.64, -180833.52, -183739.41, -183819.56, -183800.64, 187500.00, 0.000, 0.000, 0.000, 22:16:10.977, 1541906170977
57, -183605.88, -181007.23, -183587.88, -180767.58, -183730.13, -183810.38, -183791.33, 187500.00, 0.000, 0.000, 0.000, 22:16:10.977, 1541906170977
58, -183619.19, -181090.03, -183630.84, -180856.94, -183743.45, -183823.73, -183804.64, 187500.00, 0.000, 0.000, 0.000, 22:16:10.978, 1541906170978
59, -183629.28, -181153.44, -183654.06, -180925.77, -183753.53, -183833.69, -183814.73, 187500.00, 0.000, 0.000, 0.000, 22:16:10.978, 1541906170978
60, -183618.44, -181081.22, -183629.34, -180846.80, -183742.83, -183822.91, -183803.95, 187500.00, 0.000, 0.000, 0.000, 22:16:10.978, 1541906170978
61, -183604.52, -180990.39, -183578.30, -180746.97, -183728.92, -183809.08, -183790.08, 187500.00, 0.000, 0.000, 0.000, 22:16:10.978, 1541906170978
62, -183613.09, -181056.95, -183615.03, -180820.47, -183737.39, -183817.47, -183798.55, 187500.00, 0.000, 0.000, 0.000, 22:16:10.979, 1541906170979
63, -183627.00, -181132.86, -183650.38, -180904.63, -183751.25, -183831.27, -183812.38, 187500.00, 0.000, 0.000, 0.000, 22:16:10.979, 1541906170979
64, -183622.84, -181085.05, -183635.38, -180852.72, -183747.25, -183827.22, -183808.33, 187500.00, 0.002, 0.494, 0.728, 22:16:10.979, 1541906170979
65, -183605.30, -180973.00, -183569.02, -180731.86, -183729.75, -183809.77, -183790.88, 187500.00, 0.000, 0.000, 0.000, 22:16:10.979, 1541906170979
66, -183610.66, -181021.86, -183596.42, -180787.08, -183735.00, -183815.08, -183796.27, 187500.00, 0.000, 0.000, 0.000, 22:16:10.979, 1541906170979
67, -183624.77, -181111.33, -183644.98, -180884.55, -183748.98, -183829.17, -183810.23, 187500.00, 0.000, 0.000, 0.000, 22:16:10.979, 1541906170979
68, -183624.02, -181092.13, -183639.95, -180863.69, -183748.23, -183828.39, -183809.50, 187500.00, 0.000, 0.000, 0.000, 22:16:10.979, 1541906170979
69, -183607.86, -180967.20, -183569.42, -180730.00, -183732.23, -183812.30, -183793.38, 187500.00, 0.000, 0.000, 0.000, 22:16:10.980, 1541906170980
70, -183609.81, -180989.25, -183578.92, -180756.78, -183734.11, -183814.19, -183795.28, 187500.00, 0.000, 0.000, 0.000, 22:16:10.980, 1541906170980
71, -183625.81, -181084.38, -183640.61, -180863.09, -183750.06, -183830.13, -183811.28, 187500.00, 0.000, 0.000, 0.000, 22:16:10.980, 1541906170980
72, -183628.31, -181089.42, -183646.86, -180870.41, -183752.56, -183832.72, -183813.81, 187500.00, 0.000, 0.000, 0.000, 22:16:10.980, 1541906170980
73, -183609.30, -180963.94, -183574.89, -180735.48, -183733.70, -183813.98, -183794.91, 187500.00, 0.052, 0.532, 0.736, 22:16:10.981, 1541906170981
74, -183609.66, -180955.72, -183559.41, -180729.11, -183733.95, -183814.25, -183795.27, 187500.00, 0.000, 0.000, 0.000, 22:16:10.981, 1541906170981
75, -183624.02, -181054.06, -183628.69, -180838.73, -183748.34, -183828.56, -183809.63, 187500.00, 0.000, 0.000, 0.000, 22:16:10.981, 1541906170981
76, -183630.50, -181088.28, -183650.63, -180876.75, -183754.78, -183834.98, -183816.05, 187500.00, 0.000, 0.000, 0.000, 22:16:10.981, 1541906170981
77, -183615.39, -180976.02, -183590.19, -180755.64, -183739.72, -183819.88, -183800.94, 187500.00, 0.000, 0.000, 0.000, 22:16:10.981, 1541906170981
78, -183607.44, -180936.31, -183551.14, -180715.69, -183731.84, -183811.95, -183793.06, 187500.00, 0.000, 0.000, 0.000, 22:16:10.981, 1541906170981
79, -183621.16, -181034.02, -183621.27, -180825.36, -183745.59, -183825.70, -183806.81, 187500.00, 0.000, 0.000, 0.000, 22:16:10.981, 1541906170981
80, -183629.77, -181088.48, -183651.73, -180887.50, -183754.02, -183834.28, -183815.36, 187500.00, 0.000, 0.000, 0.000, 22:16:10.981, 1541906170981
81, -183617.03, -180995.64, -183607.48, -180787.16, -183741.33, -183821.66, -183802.67, 187500.00, 0.000, 0.000, 0.000, 22:16:10.981, 1541906170981
82, -183605.47, -180926.17, -183551.42, -180714.09, -183729.95, -183810.17, -183791.27, 187500.00, 0.000, 0.000, 0.000, 22:16:10.981, 1541906170981
83, -183618.02, -181017.20, -183613.45, -180818.36, -183742.42, -183822.53, -183803.78, 187500.00, 0.182, 0.564, 0.686, 22:16:10.982, 1541906170982
84, -183632.31, -181096.13, -183655.42, -180908.84, -183756.61, -183836.70, -183817.95, 187500.00, 0.000, 0.000, 0.000, 22:16:10.982, 1541906170982
85, -183622.17, -181030.77, -183631.33, -180838.95, -183746.52, -183826.59, -183807.84, 187500.00, 0.000, 0.000, 0.000, 22:16:10.982, 1541906170982
86, -183607.64, -180935.42, -183574.52, -180736.17, -183732.14, -183812.27, -183793.45, 187500.00, 0.000, 0.000, 0.000, 22:16:10.982, 1541906170982
87, -183618.80, -181011.23, -183618.70, -180824.53, -183743.22, -183823.42, -183804.53, 187500.00, 0.000, 0.000, 0.000, 22:16:10.982, 1541906170982
88, -183632.69, -181102.91, -183657.53, -180928.83, -183757.06, -183837.28, -183818.33, 187500.00, 0.000, 0.000, 0.000, 22:16:10.982, 1541906170982
89, -183627.16, -181063.97, -183645.41, -180887.39, -183751.61, -183831.73, -183812.84, 187500.00, 0.000, 0.000, 0.000, 22:16:10.983, 1541906170983
90, -183608.48, -180944.42, -183587.70, -180756.86, -183732.94, -183813.08, -183794.19, 187500.00, 0.000, 0.000, 0.000, 22:16:10.983, 1541906170983
91, -183615.55, -180998.67, -183613.47, -180820.44, -183739.92, -183820.20, -183801.23, 187500.00, 0.000, 0.000, 0.000, 22:16:10.983, 1541906170983
92, -183632.03, -181104.80, -183657.14, -180940.03, -183756.39, -183836.66, -183817.70, 187500.00, 0.000, 0.000, 0.000, 22:16:10.983, 1541906170983
93, -183632.22, -181095.75, -183656.70, -180932.42, -183756.64, -183836.86, -183817.92, 187500.00, 0.202, 0.606, 0.694, 22:16:10.983, 1541906170983
94, -183610.95, -180967.05, -183608.94, -180791.94, -183735.45, -183815.58, -183796.64, 187500.00, 0.000, 0.000, 0.000, 22:16:10.983, 1541906170983
95, -183612.73, -180991.88, -183614.81, -180821.72, -183737.33, -183817.30, -183798.52, 187500.00, 0.000, 0.000, 0.000, 22:16:10.983, 1541906170983
96, -183630.55, -181103.13, -183656.25, -180949.48, -183755.08, -183835.14, -183816.31, 187500.00, 0.000, 0.000, 0.000, 22:16:10.983, 1541906170983
97, -183634.77, -181122.53, -183662.31, -180973.91, -183759.14, -183839.30, -183820.42, 187500.00, 0.000, 0.000, 0.000, 22:16:10.983, 1541906170983
98, -183613.00, -180990.03, -183621.41, -180828.33, -183737.55, -183817.81, -183798.86, 187500.00, 0.000, 0.000, 0.000, 22:16:10.984, 1541906170984
99, -183610.16, -180977.39, -183613.03, -180818.92, -183734.80, -183815.02, -183796.08, 187500.00, 0.000, 0.000, 0.000, 22:16:10.984, 1541906170984
100, -183628.11, -181094.08, -183653.38, -180954.27, -183752.64, -183832.86, -183813.81, 187500.00, 0.000, 0.000, 0.000, 22:16:10.984, 1541906170984
101, -183637.17, -181139.63, -183666.56, -181009.45, -183761.73, -183842.00, -183823.00, 187500.00, 0.000, 0.000, 0.000, 22:16:10.984, 1541906170984
102, -183619.55, -181020.47, -183637.86, -180879.23, -183744.19, -183824.34, -183805.47, 187500.00, 0.000, 0.000, 0.000, 22:16:10.984, 1541906170984
103, -183612.67, -180971.08, -183621.70, -180827.50, -183737.38, -183817.52, -183798.52, 187500.00, 0.198, 0.616, 0.766, 22:16:10.984, 1541906170984
104, -183630.39, -181082.42, -183655.38, -180956.78, -183754.89, -183835.06, -183816.16, 187500.00, 0.000, 0.000, 0.000, 22:16:11.444, 1541906171444
105, -183642.19, -181152.55, -183672.22, -181038.59, -183766.67, -183846.91, -183828.03, 187500.00, 0.000, 0.000, 0.000, 22:16:11.446, 1541906171446
106, -183626.45, -181059.16, -183650.39, -180934.09, -183751.05, -183831.25, -183812.41, 187500.00, 0.000, 0.000, 0.000, 22:16:11.448, 1541906171448
107, -183613.05, -180976.86, -183628.63, -180842.84, -183737.69, -183817.88, -183799.08, 187500.00, 0.000, 0.000, 0.000, 22:16:11.448, 1541906171448
108, -183629.05, -181077.89, -183654.64, -180960.83, -183753.59, -183833.77, -183814.95, 187500.00, 0.000, 0.000, 0.000, 22:16:11.448, 1541906171448
109, -183643.25, -181168.75, -183674.09, -181065.69, -183767.78, -183848.03, -183829.13, 187500.00, 0.000, 0.000, 0.000, 22:16:11.448, 1541906171448
110, -183634.94, -181107.58, -183662.64, -180996.50, -183759.58, -183839.92, -183820.94, 187500.00, 0.000, 0.000, 0.000, 22:16:11.449, 1541906171449
111, -183618.30, -181002.39, -183639.06, -180876.14, -183742.94, -183823.22, -183804.33, 187500.00, 0.000, 0.000, 0.000, 22:16:11.449, 1541906171449
112, -183631.22, -181084.70, -183657.89, -180970.95, -183755.77, -183836.00, -183817.14, 187500.00, 0.242, 0.688, 0.774, 22:16:11.449, 1541906171449
113, -183650.69, -181192.48, -183682.30, -181094.97, -183775.28, -183855.55, -183836.61, 187500.00, 0.000, 0.000, 0.000, 22:16:11.449, 1541906171449
114, -183646.67, -181167.75, -183677.17, -181065.64, -183771.20, -183851.45, -183832.56, 187500.00, 0.000, 0.000, 0.000, 22:16:11.449, 1541906171449
115, -183627.02, -181048.66, -183652.25, -180927.69, -183751.61, -183831.80, -183812.98, 187500.00, 0.000, 0.000, 0.000, 22:16:11.449, 1541906171449
116, -183636.06, -181107.48, -183664.20, -180994.27, -183760.53, -183840.77, -183821.92, 187500.00, 0.000, 0.000, 0.000, 22:16:11.449, 1541906171449
117, -183654.94, -181226.44, -183687.33, -181129.91, -183779.44, -183859.59, -183840.72, 187500.00, 0.000, 0.000, 0.000, 22:16:11.449, 1541906171449
118, -183655.14, -181231.78, -183687.66, -181135.61, -183779.66, -183859.83, -183840.92, 187500.00, 0.000, 0.000, 0.000, 22:16:11.449, 1541906171449
119, -183636.36, -181105.41, -183664.77, -180990.47, -183760.95, -183841.11, -183822.14, 187500.00, 0.000, 0.000, 0.000, 22:16:11.449, 1541906171449
120, -183640.94, -181126.23, -183670.25, -181015.28, -183765.63, -183845.75, -183826.78, 187500.00, 0.000, 0.000, 0.000, 22:16:11.450, 1541906171450
121, -183658.13, -181246.88, -183690.98, -181152.83, -183782.70, -183862.81, -183843.84, 187500.00, 0.000, 0.000, 0.000, 22:16:11.450, 1541906171450
122, -183665.64, -181278.41, -183699.08, -181188.78, -183790.25, -183870.34, -183851.27, 187500.00, 0.092, 0.644, 0.650, 22:16:11.450, 1541906171450
123, -183645.30, -181157.44, -183675.67, -181050.75, -183769.88, -183850.13, -183831.02, 187500.00, 0.000, 0.000, 0.000, 22:16:11.450, 1541906171450
124, -183643.64, -181141.91, -183673.53, -181033.36, -183768.17, -183848.44, -183829.39, 187500.00, 0.000, 0.000, 0.000, 22:16:11.451, 1541906171451
125, -183664.36, -181258.25, -183697.31, -181168.38, -183788.84, -183869.00, -183850.06, 187500.00, 0.000, 0.000, 0.000, 22:16:11.451, 1541906171451
126, -183674.20, -181312.52, -183708.36, -181230.03, -183798.59, -183878.83, -183859.91, 187500.00, 0.000, 0.000, 0.000, 22:16:11.451, 1541906171451
127, -183655.61, -181208.31, -183687.45, -181109.86, -183780.02, -183860.30, -183841.44, 187500.00, 0.000, 0.000, 0.000, 22:16:11.452, 1541906171452
128, -183646.16, -181153.81, -183676.92, -181048.83, -183770.66, -183851.05, -183832.11, 187500.00, 0.000, 0.000, 0.000, 22:16:11.452, 1541906171452
129, -183664.75, -181261.05, -183698.00, -181173.84, -183789.05, -183869.41, -183850.48, 187500.00, 0.000, 0.000, 0.000, 22:16:11.452, 1541906171452
130, -183676.92, -181335.20, -183711.42, -181260.23, -183801.20, -183881.41, -183862.52, 187500.00, 0.000, 0.000, 0.000, 22:16:11.452, 1541906171452
131, -183664.86, -181255.70, -183697.67, -181168.30, -183789.17, -183869.42, -183850.41, 187500.00, 0.000, 0.000, 0.000, 22:16:11.453, 1541906171453
132, -183650.02, -181170.97, -183681.17, -181070.69, -183774.41, -183854.72, -183835.69, 187500.00, 0.058, 0.708, 0.666, 22:16:11.453, 1541906171453
133, -183665.89, -181263.00, -183698.97, -181177.95, -183790.20, -183870.47, -183851.58, 187500.00, 0.000, 0.000, 0.000, 22:16:11.453, 1541906171453
134, -183681.41, -181354.52, -183716.27, -181283.48, -183805.89, -183886.03, -183867.19, 187500.00, 0.000, 0.000, 0.000, 22:16:11.454, 1541906171454
135, -183674.31, -181303.52, -183708.22, -181223.83, -183798.75, -183878.94, -183860.02, 187500.00, 0.000, 0.000, 0.000, 22:16:11.454, 1541906171454
136, -183656.61, -181193.20, -183688.47, -181096.98, -183781.02, -183861.33, -183842.33, 187500.00, 0.000, 0.000, 0.000, 22:16:11.454, 1541906171454
137, -183668.84, -181264.34, -183702.19, -181179.88, -183793.16, -183873.52, -183854.52, 187500.00, 0.000, 0.000, 0.000, 22:16:11.454, 1541906171454
138, -183684.23, -181368.38, -183719.23, -181300.48, -183808.48, -183888.89, -183869.91, 187500.00, 0.000, 0.000, 0.000, 22:16:11.455, 1541906171455
139, -183680.13, -181350.77, -183714.88, -181278.44, -183804.41, -183884.70, -183865.78, 187500.00, 0.000, 0.000, 0.000, 22:16:11.455, 1541906171455
140, -183662.98, -181231.22, -183695.84, -181139.17, -183787.38, -183867.67, -183848.70, 187500.00, 0.000, 0.000, 0.000, 22:16:11.455, 1541906171455
141, -183669.80, -181274.11, -183703.50, -181190.13, -183794.19, -183874.42, -183855.55, 187500.00, 0.000, 0.000, 0.000, 22:16:11.455, 1541906171455
142, -183687.70, -181385.77, -183723.11, -181320.45, -183812.06, -183892.28, -183873.41, 187500.00, 0.012, 0.774, 0.698, 22:16:11.455, 1541906171455
143, -183689.13, -181396.41, -183724.58, -181331.98, -183813.44, -183893.73, -183874.70, 187500.00, 0.000, 0.000, 0.000, 22:16:11.455, 1541906171455
144, -183668.56, -181274.16, -183702.31, -181187.56, -183792.95, -183873.25, -183854.27, 187500.00, 0.000, 0.000, 0.000, 22:16:11.455, 1541906171455
145, -183669.69, -181283.23, -183703.66, -181198.59, -183794.25, -183874.34, -183855.55, 187500.00, 0.000, 0.000, 0.000, 22:16:11.456, 1541906171456
146, -183688.19, -181399.52, -183723.67, -181333.70, -183812.52, -183892.63, -183873.83, 187500.00, 0.000, 0.000, 0.000, 22:16:11.456, 1541906171456
147, -183695.89, -181437.02, -183731.84, -181375.44, -183820.11, -183900.38, -183881.52, 187500.00, 0.000, 0.000, 0.000, 22:16:11.456, 1541906171456
148, -183675.61, -181321.64, -183710.14, -181239.88, -183799.91, -183880.20, -183861.36, 187500.00, 0.000, 0.000, 0.000, 22:16:11.456, 1541906171456
149, -183668.95, -181297.94, -183703.19, -181213.09, -183793.22, -183873.47, -183854.73, 187500.00, 0.000, 0.000, 0.000, 22:16:11.456, 1541906171456
150, -183690.58, -181414.63, -183726.17, -181348.80, -183814.64, -183895.08, -183876.16, 187500.00, 0.000, 0.000, 0.000, 22:16:11.456, 1541906171456
151, -183700.28, -181474.56, -183736.56, -181417.28, -183824.39, -183904.77, -183885.81, 187500.00, 0.000, 0.000, 0.000, 22:16:11.456, 1541906171456
152, -183682.19, -181375.27, -183717.30, -181300.02, -183806.48, -183886.70, -183867.80, 187500.00, -0.030, 0.756, 0.644, 22:16:11.456, 1541906171456
153, -183672.19, -181314.14, -183706.67, -181228.52, -183796.63, -183876.75, -183857.91, 187500.00, 0.000, 0.000, 0.000, 22:16:11.456, 1541906171456
154, -183690.39, -181420.59, -183726.22, -181352.86, -183814.69, -183894.86, -183876.03, 187500.00, 0.000, 0.000, 0.000, 22:16:11.456, 1541906171456
155, -183704.72, -181499.31, -183741.23, -181444.39, -183828.83, -183909.14, -183890.20, 187500.00, 0.000, 0.000, 0.000, 22:16:11.457, 1541906171457
156, -183691.75, -181426.84, -183727.67, -181357.67, -183815.94, -183896.31, -183877.38, 187500.00, 0.000, 0.000, 0.000, 22:16:11.457, 1541906171457
157, -183675.66, -181334.95, -183710.56, -181249.31, -183799.94, -183880.23, -183861.36, 187500.00, 0.000, 0.000, 0.000, 22:16:11.457, 1541906171457
158, -183691.97, -181424.44, -183727.89, -181354.42, -183816.11, -183896.42, -183877.56, 187500.00, 0.000, 0.000, 0.000, 22:16:11.457, 1541906171457
159, -183710.14, -181518.72, -183747.00, -181464.22, -183834.20, -183914.58, -183895.59, 187500.00, 0.000, 0.000, 0.000, 22:16:11.457, 1541906171457
160, -183702.16, -181473.63, -183738.53, -181410.02, -183826.31, -183906.70, -183887.61, 187500.00, 0.000, 0.000, 0.000, 22:16:11.457, 1541906171457
161, -183680.95, -181357.38, -183716.14, -181274.00, -183805.16, -183885.53, -183866.47, 187500.00, -0.068, 0.772, 0.632, 22:16:11.457, 1541906171457
162, -183692.22, -181423.52, -183728.06, -181351.97, -183816.45, -183896.73, -183877.72, 187500.00, 0.000, 0.000, 0.000, 22:16:11.457, 1541906171457
163, -183708.58, -181530.89, -183745.42, -181476.91, -183832.72, -183913.03, -183894.02, 187500.00, 0.000, 0.000, 0.000, 22:16:11.457, 1541906171457
164, -183705.67, -181518.38, -183742.42, -181460.16, -183829.72, -183910.11, -183891.14, 187500.00, 0.000, 0.000, 0.000, 22:16:11.457, 1541906171457
165, -183684.80, -181393.67, -183720.38, -181312.00, -183808.94, -183889.19, -183870.34, 187500.00, 0.000, 0.000, 0.000, 22:16:11.458, 1541906171458
166, -183691.59, -181430.38, -183727.73, -181355.45, -183815.80, -183896.09, -183877.11, 187500.00, 0.000, 0.000, 0.000, 22:16:11.458, 1541906171458
167, -183711.50, -181545.28, -183748.80, -181489.83, -183835.64, -183916.00, -183896.95, 187500.00, 0.000, 0.000, 0.000, 22:16:11.458, 1541906171458
168, -183714.50, -181559.80, -183751.81, -181506.31, -183838.64, -183918.97, -183899.95, 187500.00, 0.000, 0.000, 0.000, 22:16:11.458, 1541906171458
169, -183692.27, -181435.23, -183728.41, -181358.94, -183816.50, -183896.78, -183877.77, 187500.00, 0.000, 0.000, 0.000, 22:16:11.458, 1541906171458
170, -183691.45, -181437.91, -183727.59, -181360.59, -183815.59, -183895.91, -183876.98, 187500.00, 0.000, 0.000, 0.000, 22:16:11.458, 1541906171458
171, -183712.52, -181554.39, -183749.73, -181496.98, -183836.70, -183916.92, -183897.94, 187500.00, -0.110, 0.756, 0.586, 22:16:11.458, 1541906171458
172, -183720.47, -181596.61, -183757.95, -181545.02, -183844.52, -183924.77, -183905.81, 187500.00, 0.000, 0.000, 0.000, 22:16:11.458, 1541906171458
173, -183700.78, -181484.09, -183737.39, -181411.63, -183824.89, -183905.14, -183886.16, 187500.00, 0.000, 0.000, 0.000, 22:16:11.458, 1541906171458
174, -183693.77, -181448.14, -183730.11, -181368.83, -183817.92, -183898.23, -183879.33, 187500.00, 0.000, 0.000, 0.000, 22:16:11.458, 1541906171458
175, -183715.16, -181558.67, -183752.45, -181498.39, -183839.27, -183919.53, -183900.69, 187500.00, 0.000, 0.000, 0.000, 22:16:11.459, 1541906171459
176, -183724.97, -181618.94, -183762.69, -181569.11, -183849.06, -183929.34, -183910.38, 187500.00, 0.000, 0.000, 0.000, 22:16:11.459, 1541906171459
177, -183709.14, -181525.38, -183746.05, -181457.36, -183833.28, -183913.55, -183894.52, 187500.00, 0.000, 0.000, 0.000, 22:16:11.459, 1541906171459
178, -183697.69, -181453.89, -183734.00, -181373.16, -183821.86, -183902.06, -183883.03, 187500.00, 0.000, 0.000, 0.000, 22:16:11.459, 1541906171459
179, -183715.00, -181555.75, -183752.19, -181492.00, -183839.06, -183919.41, -183900.25, 187500.00, 0.000, 0.000, 0.000, 22:16:11.459, 1541906171459
180, -183727.36, -181638.19, -183765.16, -181588.05, -183851.34, -183931.73, -183912.58, 187500.00, 0.000, 0.000, 0.000, 22:16:11.459, 1541906171459
181, -183714.69, -181570.17, -183752.05, -181506.75, -183838.83, -183919.17, -183899.95, 187500.00, -0.114, 0.784, 0.584, 22:16:11.459, 1541906171459
182, -183696.16, -181468.70, -183732.77, -181387.39, -183820.22, -183900.67, -183881.52, 187500.00, 0.000, 0.000, 0.000, 22:16:11.459, 1541906171459
183, -183711.69, -181551.81, -183749.03, -181486.34, -183835.81, -183916.11, -183897.03, 187500.00, 0.000, 0.000, 0.000, 22:16:11.459, 1541906171459
184, -183729.70, -181648.08, -183767.70, -181598.78, -183853.80, -183933.97, -183914.94, 187500.00, 0.000, 0.000, 0.000, 22:16:11.459, 1541906171459
185, -183723.95, -181610.06, -183761.58, -181552.03, -183848.03, -183928.23, -183909.19, 187500.00, 0.000, 0.000, 0.000, 22:16:11.459, 1541906171459
186, -183702.64, -181489.81, -183739.36, -181410.06, -183826.80, -183907.02, -183887.92, 187500.00, 0.000, 0.000, 0.000, 22:16:11.459, 1541906171459
187, -183712.72, -181548.34, -183750.05, -181479.33, -183836.94, -183917.05, -183898.08, 187500.00, 0.000, 0.000, 0.000, 22:16:11.460, 1541906171460
188, -183731.94, -181657.89, -183770.05, -181607.41, -183856.08, -183936.19, -183917.25, 187500.00, 0.000, 0.000, 0.000, 22:16:11.460, 1541906171460
189, -183731.22, -181650.70, -183769.20, -181597.81, -183855.25, -183935.36, -183916.42, 187500.00, 0.000, 0.000, 0.000, 22:16:11.460, 1541906171460
190, -183707.39, -181522.84, -183744.41, -181445.80, -183831.56, -183911.63, -183892.63, 187500.00, 0.000, 0.000, 0.000, 22:16:11.460, 1541906171460
191, -183712.05, -181549.88, -183749.23, -181477.50, -183836.19, -183916.31, -183897.34, 187500.00, -0.086, 0.796, 0.556, 22:16:11.460, 1541906171460
192, -183732.88, -181663.73, -183771.03, -181611.77, -183856.97, -183937.14, -183918.17, 187500.00, 0.000, 0.000, 0.000, 22:16:11.460, 1541906171460
193, -183737.56, -181684.38, -183775.91, -181635.56, -183861.67, -183941.94, -183922.94, 187500.00, 0.000, 0.000, 0.000, 22:16:11.460, 1541906171460
194, -183715.70, -181561.05, -183753.13, -181488.88, -183839.72, -183920.05, -183900.95, 187500.00, 0.000, 0.000, 0.000, 22:16:11.460, 1541906171460
195, -183715.00, -181552.39, -183752.34, -181477.73, -183839.09, -183919.41, -183900.27, 187500.00, 0.000, 0.000, 0.000, 22:16:11.460, 1541906171460
196, -183733.64, -181668.98, -183771.83, -181615.05, -183857.75, -183937.94, -183918.91, 187500.00, 0.000, 0.000, 0.000, 22:16:11.460, 1541906171460
197, -183741.22, -181715.97, -183779.70, -181669.20, -183865.23, -183945.42, -183926.44, 187500.00, 0.000, 0.000, 0.000, 22:16:11.461, 1541906171461
198, -183724.14, -181606.55, -183761.83, -181538.72, -183848.13, -183928.34, -183909.39, 187500.00, 0.000, 0.000, 0.000, 22:16:11.461, 1541906171461
199, -183715.58, -181559.58, -183753.02, -181482.75, -183839.56, -183919.78, -183900.89, 187500.00, 0.000, 0.000, 0.000, 22:16:11.461, 1541906171461
200, -183734.80, -181668.77, -183773.00, -181611.84, -183858.78, -183938.95, -183920.00, 187500.00, 0.000, 0.000, 0.000, 22:16:11.462, 1541906171462
201, -183746.80, -181736.91, -183785.36, -181691.67, -183870.73, -183951.00, -183931.97, 187500.00, -0.110, 0.818, 0.578, 22:16:11.462, 1541906171462
202, -183731.42, -181650.66, -183769.44, -181587.53, -183855.47, -183935.69, -183916.61, 187500.00, 0.000, 0.000, 0.000, 22:16:11.462, 1541906171462
203, -183715.73, -181570.20, -183753.22, -181491.59, -183839.81, -183920.00, -183900.95, 187500.00, 0.000, 0.000, 0.000, 22:16:11.462, 1541906171462
204, -183732.77, -181668.95, -183770.84, -181607.61, -183856.59, -183936.88, -183917.88, 187500.00, 0.000, 0.000, 0.000, 22:16:11.462, 1541906171462
205, -183749.95, -181756.17, -183788.52, -181709.48, -183873.69, -183954.00, -183935.00, 187500.00, 0.000, 0.000, 0.000, 22:16:11.462, 1541906171462
206, -183738.75, -181697.33, -183776.95, -181639.97, -183862.53, -183942.77, -183923.80, 187500.00, 0.000, 0.000, 0.000, 22:16:11.463, 1541906171463
207, -183717.86, -181589.28, -183755.47, -181513.86, -183841.77, -183921.97, -183903.02, 187500.00, 0.000, 0.000, 0.000, 22:16:11.463, 1541906171463
208, -183731.20, -181664.78, -183769.33, -181603.14, -183855.09, -183935.38, -183916.30, 187500.00, 0.000, 0.000, 0.000, 22:16:11.464, 1541906171464
209, -183749.64, -181765.19, -183788.38, -181720.44, -183873.41, -183953.70, -183934.64, 187500.00, 0.000, 0.000, 0.000, 22:16:11.464, 1541906171464
210, -183744.34, -181735.75, -183782.86, -181684.94, -183868.11, -183948.41, -183929.38, 187500.00, -0.130, 0.812, 0.562, 22:16:11.465, 1541906171465
211, -183722.77, -181610.56, -183760.64, -181536.69, -183846.72, -183926.89, -183907.94, 187500.00, 0.000, 0.000, 0.000, 22:16:11.465, 1541906171465
212, -183731.17, -181660.27, -183769.36, -181595.33, -183855.09, -183935.34, -183916.30, 187500.00, 0.000, 0.000, 0.000, 22:16:11.466, 1541906171466
213, -183750.41, -181771.69, -183789.16, -181725.11, -183874.30, -183954.42, -183935.42, 187500.00, 0.000, 0.000, 0.000, 22:16:11.467, 1541906171467
214, -183749.19, -181772.41, -183788.06, -181724.69, -183873.09, -183953.27, -183934.20, 187500.00, 0.000, 0.000, 0.000, 22:16:11.467, 1541906171467
215, -183729.14, -181641.80, -183767.25, -181571.13, -183853.19, -183933.30, -183914.27, 187500.00, 0.000, 0.000, 0.000, 22:16:11.467, 1541906171467
216, -183733.03, -181655.70, -183771.28, -181588.72, -183857.03, -183937.23, -183918.28, 187500.00, 0.000, 0.000, 0.000, 22:16:11.468, 1541906171468
217, -183753.06, -181771.23, -183791.89, -181724.06, -183876.94, -183957.17, -183938.17, 187500.00, 0.000, 0.000, 0.000, 22:16:11.468, 1541906171468
218, -183758.84, -181798.83, -183797.73, -181755.48, -183882.67, -183962.92, -183943.94, 187500.00, 0.000, 0.000, 0.000, 22:16:11.468, 1541906171468
219, -183736.09, -181676.25, -183774.36, -181610.11, -183859.97, -183940.25, -183921.30, 187500.00, 0.000, 0.000, 0.000, 22:16:11.470, 1541906171470
220, -183732.25, -181655.06, -183770.41, -181584.61, -183856.06, -183936.36, -183917.48, 187500.00, -0.108, 0.806, 0.540, 22:16:11.470, 1541906171470
221, -183752.72, -181770.28, -183791.55, -181720.19, -183876.64, -183956.84, -183937.91, 187500.00, 0.000, 0.000, 0.000, 22:16:11.471, 1541906171471
222, -183761.27, -181823.25, -183800.31, -181780.89, -183885.02, -183965.27, -183946.33, 187500.00, 0.000, 0.000, 0.000, 22:16:11.471, 1541906171471
223, -183742.28, -181716.59, -183780.75, -181655.08, -183866.09, -183946.30, -183927.38, 187500.00, 0.000, 0.000, 0.000, 22:16:11.471, 1541906171471
224, -183731.94, -181656.06, -183769.98, -181584.47, -183855.77, -183935.88, -183917.02, 187500.00, 0.000, 0.000, 0.000, 22:16:12.118, 1541906172118
225, -183751.73, -181764.98, -183790.39, -181711.73, -183875.44, -183955.67, -183936.75, 187500.00, 0.000, 0.000, 0.000, 22:16:12.118, 1541906172118
226, -183763.09, -181840.80, -183802.19, -181800.39, -183886.83, -183967.02, -183948.06, 187500.00, 0.000, 0.000, 0.000, 22:16:12.118, 1541906172118
227, -183749.50, -181761.72, -183788.28, -181707.03, -183873.38, -183953.52, -183934.64, 187500.00, 0.000, 0.000, 0.000, 22:16:12.118, 1541906172118
228, -183733.95, -181671.91, -183772.17, -181600.67, -183857.73, -183937.91, -183919.00, 187500.00, 0.000, 0.000, 0.000, 22:16:12.118, 1541906172118
229, -183750.83, -181765.72, -183789.53, -181710.67, -183874.63, -183954.83, -183935.72, 187500.00, 0.000, 0.000, 0.000, 22:16:12.118, 1541906172118
230, -183767.97, -181858.64, -183807.13, -181818.52, -183891.73, -183971.92, -183952.86, 187500.00, -0.080, 0.818, 0.542, 22:16:12.118, 1541906172118
231, -183758.73, -181807.77, -183797.63, -181758.05, -183882.50, -183962.70, -183943.61, 187500.00, 0.000, 0.000, 0.000, 22:16:12.119, 1541906172119
232, -183735.05, -181691.20, -183773.42, -181621.50, -183858.88, -183939.11, -183920.00, 187500.00, 0.000, 0.000, 0.000, 22:16:12.119, 1541906172119
233, -183748.56, -181761.23, -183787.30, -181703.77, -183872.34, -183952.55, -183933.45, 187500.00, 0.000, 0.000, 0.000, 22:16:12.119, 1541906172119
234, -183766.45, -181866.17, -183805.63, -181827.64, -183890.13, -183970.20, -183951.25, 187500.00, 0.000, 0.000, 0.000, 22:16:12.119, 1541906172119
235, -183762.72, -181846.39, -183801.72, -181802.83, -183886.39, -183966.56, -183947.56, 187500.00, 0.000, 0.000, 0.000, 22:16:12.119, 1541906172119
236, -183739.88, -181717.89, -183778.34, -181651.14, -183863.70, -183943.83, -183924.81, 187500.00, 0.000, 0.000, 0.000, 22:16:12.119, 1541906172119
237, -183747.38, -181758.09, -183785.95, -181698.95, -183871.13, -183951.25, -183932.28, 187500.00, 0.000, 0.000, 0.000, 22:16:12.119, 1541906172119
238, -183769.69, -181871.83, -183808.88, -181832.13, -183893.39, -183973.58, -183954.56, 187500.00, 0.000, 0.000, 0.000, 22:16:12.119, 1541906172119
239, -183769.89, -181880.25, -183809.19, -181841.34, -183893.58, -183973.77, -183954.81, 187500.00, 0.000, 0.000, 0.000, 22:16:12.120, 1541906172120
240, -183747.06, -181749.16, -183785.78, -181686.19, -183870.89, -183950.97, -183932.05, 187500.00, -0.268, 0.878, 0.634, 22:16:12.120, 1541906172120
241, -183749.17, -181753.52, -183788.02, -181690.44, -183873.11, -183953.17, -183934.20, 187500.00, 0.000, 0.000, 0.000, 22:16:12.120, 1541906172120
242, -183768.53, -181869.39, -183807.86, -181824.78, -183892.38, -183972.47, -183953.48, 187500.00, 0.000, 0.000, 0.000, 22:16:12.120, 1541906172120
243, -183773.00, -181903.86, -183812.52, -181864.72, -183896.77, -183976.89, -183957.84, 187500.00, 0.000, 0.000, 0.000, 22:16:12.120, 1541906172120
244, -183749.69, -181782.08, -183788.69, -181721.00, -183873.56, -183953.67, -183934.67, 187500.00, 0.000, 0.000, 0.000, 22:16:12.120, 1541906172120
245, -183743.38, -181743.75, -183782.19, -181677.45, -183867.28, -183947.36, -183928.44, 187500.00, 0.000, 0.000, 0.000, 22:16:12.120, 1541906172120
246, -183764.69, -181856.64, -183803.91, -181810.00, -183888.44, -183968.58, -183949.64, 187500.00, 0.000, 0.000, 0.000, 22:16:12.120, 1541906172120
247, -183775.39, -181915.52, -183814.81, -181878.33, -183899.11, -183979.14, -183960.28, 187500.00, 0.000, 0.000, 0.000, 22:16:12.120, 1541906172120
248, -183757.73, -181811.97, -183796.73, -181756.42, -183881.45, -183961.63, -183942.67, 187500.00, 0.000, 0.000, 0.000, 22:16:12.120, 1541906172120
249, -183746.63, -181739.56, -183785.31, -181671.48, -183870.23, -183950.63, -183931.52, 187500.00, -0.144, 0.862, 0.674, 22:16:12.120, 1541906172120
250, -183765.84, -181847.39, -183805.08, -181797.38, -183889.45, -183969.73, -183950.67, 187500.00, 0.000, 0.000, 0.000, 22:16:12.120, 1541906172120
251, -183782.08, -181931.38, -183821.61, -181895.34, -183905.70, -183985.94, -183966.88, 187500.00, 0.000, 0.000, 0.000, 22:16:12.121, 1541906172121
252, -183770.16, -181861.75, -183809.45, -181812.39, -183893.92, -183974.09, -183955.09, 187500.00, 0.000, 0.000, 0.000, 22:16:12.121, 1541906172121
253, -183752.41, -181761.30, -183791.33, -181693.13, -183876.22, -183956.28, -183937.44, 187500.00, 0.000, 0.000, 0.000, 22:16:12.121, 1541906172121
254, -183767.36, -181851.42, -183806.66, -181798.06, -183891.13, -183971.28, -183952.30, 187500.00, 0.000, 0.000, 0.000, 22:16:12.121, 1541906172121
255, -183784.08, -181952.36, -183823.88, -181916.14, -183907.83, -183988.06, -183968.86, 187500.00, 0.000, 0.000, 0.000, 22:16:12.121, 1541906172121
0, -183775.08, -181911.86, -183814.58, -181867.73, -183898.84, -183979.11, -183960.03, 187500.00, 0.000, 0.000, 0.000, 22:16:12.121, 1541906172121
1, -183754.84, -181790.95, -183793.78, -181724.17, -183878.66, -183958.78, -183939.78, 187500.00, 0.000, 0.000, 0.000, 22:16:12.121, 1541906172121
2, -183768.73, -181857.30, -183807.91, -181801.66, -183892.44, -183972.59, -183953.55, 187500.00, 0.000, 0.000, 0.000, 22:16:12.121, 1541906172121
3, -183787.72, -181973.08, -183827.48, -181936.78, -183911.42, -183991.59, -183972.55, 187500.00, -0.138, 0.848, 0.636, 22:16:12.121, 1541906172121
4, -183786.16, -181967.58, -183825.86, -181927.95, -183909.88, -183989.89, -183970.94, 187500.00, 0.000, 0.000, 0.000, 22:16:12.121, 1541906172121
5, -183763.55, -181837.16, -183802.67, -181773.36, -183887.30, -183967.34, -183948.30, 187500.00, 0.000, 0.000, 0.000, 22:16:12.121, 1541906172121
6, -183769.17, -181870.06, -183808.45, -181811.81, -183892.84, -183973.05, -183953.98, 187500.00, 0.000, 0.000, 0.000, 22:16:12.121, 1541906172121
7, -183788.94, -181990.84, -183828.67, -181952.94, -183912.41, -183992.69, -183973.61, 187500.00, 0.000, 0.000, 0.000, 22:16:12.122, 1541906172122
8, -183794.28, -182011.02, -183834.02, -181976.56, -183917.77, -183997.94, -183978.92, 187500.00, 0.000, 0.000, 0.000, 22:16:12.122, 1541906172122
9, -183768.73, -181883.09, -183808.02, -181825.38, -183892.36, -183972.55, -183953.48, 187500.00, 0.000, 0.000, 0.000, 22:16:12.122, 1541906172122
10, -183767.61, -181878.86, -183807.02, -181819.77, -183891.27, -183971.50, -183952.45, 187500.00, 0.000, 0.000, 0.000, 22:16:12.122, 1541906172122
11, -183790.14, -182002.11, -183830.16, -181964.77, -183913.86, -183994.03, -183974.98, 187500.00, 0.000, 0.000, 0.000, 22:16:12.122, 1541906172122
12, -183799.33, -182053.09, -183839.41, -182022.97, -183922.91, -184003.08, -183984.02, 187500.00, 0.000, 0.000, 0.000, 22:16:12.122, 1541906172122
13, -183780.86, -181951.78, -183820.56, -181900.66, -183904.47, -183984.63, -183965.64, 187500.00, -0.154, 0.854, 0.756, 22:16:12.122, 1541906172122
14, -183772.27, -181905.23, -183811.69, -181845.67, -183895.81, -183976.02, -183957.02, 187500.00, 0.000, 0.000, 0.000, 22:16:12.122, 1541906172122
15, -183789.84, -182016.11, -183829.70, -181976.63, -183913.41, -183993.58, -183974.50, 187500.00, 0.000, 0.000, 0.000, 22:16:12.122, 1541906172122
16, -183803.39, -182086.63, -183843.52, -182060.09, -183926.91, -184007.09, -183987.97, 187500.00, 0.000, 0.000, 0.000, 22:16:12.122, 1541906172122
17, -183787.34, -181995.14, -183827.22, -181951.08, -183910.91, -183991.08, -183972.03, 187500.00, 0.000, 0.000, 0.000, 22:16:12.122, 1541906172122
18, -183772.38, -181915.86, -183811.83, -181856.92, -183895.89, -183976.00, -183957.00, 187500.00, 0.000, 0.000, 0.000, 22:16:12.123, 1541906172123
19, -183790.59, -182023.48, -183830.50, -181984.64, -183914.02, -183994.17, -183975.13, 187500.00, 0.000, 0.000, 0.000, 22:16:12.123, 1541906172123
20, -183805.58, -182118.23, -183845.86, -182095.47, -183929.06, -184009.19, -183990.03, 187500.00, 0.000, 0.000, 0.000, 22:16:12.123, 1541906172123
21, -183792.63, -182058.63, -183832.83, -182023.38, -183916.05, -183996.27, -183977.14, 187500.00, 0.000, 0.000, 0.000, 22:16:12.123, 1541906172123
22, -183774.78, -181952.41, -183814.59, -181896.75, -183898.23, -183978.41, -183959.41, 187500.00, 0.000, 0.000, 0.000, 22:16:12.123, 1541906172123
23, -183789.36, -182044.95, -183829.38, -182004.08, -183912.81, -183992.94, -183973.89, 187500.00, -0.094, 0.802, 0.680, 22:16:12.123, 1541906172123
24, -183811.17, -182158.23, -183851.58, -182137.03, -183934.56, -184014.73, -183995.64, 187500.00, 0.000, 0.000, 0.000, 22:16:12.123, 1541906172123
25, -183804.95, -182133.27, -183845.38, -182105.73, -183928.31, -184008.42, -183989.47, 187500.00, 0.000, 0.000, 0.000, 22:16:12.123, 1541906172123
26, -183784.44, -182011.95, -183824.42, -181958.53, -183907.83, -183988.02, -183968.98, 187500.00, 0.000, 0.000, 0.000, 22:16:12.123, 1541906172123
27, -183795.66, -182077.77, -183835.73, -182034.05, -183918.94, -183999.17, -183980.08, 187500.00, 0.000, 0.000, 0.000, 22:16:12.123, 1541906172123
28, -183817.98, -182206.66, -183858.48, -182183.70, -183941.27, -184021.39, -184002.39, 187500.00, 0.000, 0.000, 0.000, 22:16:12.124, 1541906172124
29, -183818.27, -182214.67, -183858.94, -182190.53, -183941.66, -184021.70, -184002.69, 187500.00, 0.000, 0.000, 0.000, 22:16:12.124, 1541906172124
30, -183792.48, -182085.22, -183832.78, -182034.72, -183915.95, -183996.02, -183977.00, 187500.00, 0.000, 0.000, 0.000, 22:16:12.124, 1541906172124
31, -183796.78, -182113.58, -183837.08, -182066.23, -183920.25, -184000.34, -183981.31, 187500.00, 0.000, 0.000, 0.000, 22:16:12.124, 1541906172124
32, -183819.42, -182245.25, -183859.94, -182220.02, -183942.80, -184022.86, -184003.75, 187500.00, 0.000, 0.000, 0.000, 22:16:12.124, 1541906172124
33, -183822.75, -182283.77, -183863.47, -182262.27, -183946.05, -184026.13, -184007.09, 187500.00, -0.160, 0.696, 0.526, 22:16:12.124, 1541906172124
34, -183802.44, -182163.33, -183842.78, -182117.16, -183925.75, -184005.80, -183986.81, 187500.00, 0.000, 0.000, 0.000, 22:16:12.124, 1541906172124
35, -183802.39, -182155.95, -183842.69, -182107.20, -183925.66, -184005.75, -183986.70, 187500.00, 0.000, 0.000, 0.000, 22:16:12.124, 1541906172124
36, -183824.56, -182293.94, -183865.41, -182267.47, -183947.83, -184027.92, -184008.86, 187500.00, 0.000, 0.000, 0.000, 22:16:12.124, 1541906172124
37, -183834.31, -182362.02, -183875.30, -182345.61, -183957.44, -184037.55, -184018.53, 187500.00, 0.000, 0.000, 0.000, 22:16:12.124, 1541906172124
38, -183817.75, -182262.05, -183858.47, -182224.92, -183940.91, -184021.09, -184002.08, 187500.00, 0.000, 0.000, 0.000, 22:16:12.124, 1541906172124
39, -183810.09, -182215.81, -183850.69, -182167.19, -183933.28, -184013.39, -183994.39, 187500.00, 0.000, 0.000, 0.000, 22:16:12.124, 1541906172124
40, -183831.36, -182343.64, -183872.38, -182316.47, -183954.53, -184034.67, -184015.56, 187500.00, 0.000, 0.000, 0.000, 22:16:12.125, 1541906172125
41, -183847.36, -182434.17, -183888.63, -182421.28, -183970.47, -184050.56, -184031.56, 187500.00, 0.000, 0.000, 0.000, 22:16:12.125, 1541906172125
42, -183834.67, -182362.09, -183875.70, -182331.47, -183957.89, -184038.02, -184018.98, 187500.00, -0.126, 0.704, 0.654, 22:16:12.125, 1541906172125
43, -183816.69, -182281.98, -183857.48, -182233.97, -183939.89, -184020.03, -184000.94, 187500.00, 0.000, 0.000, 0.000, 22:16:12.125, 1541906172125
44, -183836.52, -182396.58, -183877.45, -182367.98, -183959.56, -184039.66, -184020.61, 187500.00, 0.000, 0.000, 0.000, 22:16:12.125, 1541906172125
45, -183853.34, -182507.59, -183894.64, -182496.95, -183976.28, -184056.38, -184037.31, 187500.00, 0.000, 0.000, 0.000, 22:16:12.125, 1541906172125
46, -183846.28, -182468.59, -183887.61, -182447.38, -183969.38, -184049.44, -184030.36, 187500.00, 0.000, 0.000, 0.000, 22:16:12.125, 1541906172125
47, -183828.42, -182365.00, -183869.52, -182320.41, -183951.52, -184031.73, -184012.55, 187500.00, 0.000, 0.000, 0.000, 22:16:12.125, 1541906172125
48, -183842.69, -182454.84, -183883.89, -182425.13, -183965.72, -184045.84, -184026.75, 187500.00, 0.000, 0.000, 0.000, 22:16:12.125, 1541906172125
49, -183864.14, -182581.31, -183905.59, -182571.66, -183987.08, -184067.14, -184048.08, 187500.00, 0.000, 0.000, 0.000, 22:16:12.125, 1541906172125
50, -183863.41, -182576.39, -183904.72, -182560.48, -183986.28, -184066.36, -184047.28, 187500.00, 0.000, 0.000, 0.000, 22:16:12.125, 1541906172125
51, -183844.14, -182459.92, -183885.16, -182418.55, -183967.08, -184047.19, -184028.00, 187500.00, 0.000, 0.000, 0.000, 22:16:12.126, 1541906172126
52, -183854.31, -182522.30, -183895.55, -182490.75, -183977.34, -184057.47, -184038.25, 187500.00, -0.132, 0.778, 0.756, 22:16:12.126, 1541906172126
53, -183876.42, -182659.59, -183917.88, -182650.88, -183999.31, -184079.34, -184060.22, 187500.00, 0.000, 0.000, 0.000, 22:16:12.126, 1541906172126
54, -183878.45, -182688.64, -183920.08, -182680.95, -184001.25, -184081.34, -184062.16, 187500.00, 0.000, 0.000, 0.000, 22:16:12.126, 1541906172126
55, -183858.09, -182575.69, -183899.50, -182540.70, -183980.94, -184061.05, -184041.89, 187500.00, 0.000, 0.000, 0.000, 22:16:12.126, 1541906172126
56, -183862.56, -182602.66, -183903.94, -182569.20, -183985.30, -184065.36, -184046.31, 187500.00, 0.000, 0.000, 0.000, 22:16:12.126, 1541906172126
57, -183886.70, -182744.81, -183928.39, -182735.83, -184009.33, -184089.45, -184070.23, 187500.00, 0.000, 0.000, 0.000, 22:16:12.126, 1541906172126
58, -183895.59, -182805.33, -183937.45, -182803.33, -184018.23, -184098.39, -184079.14, 187500.00, 0.000, 0.000, 0.000, 22:16:12.126, 1541906172126
59, -183877.38, -182709.83, -183918.97, -182682.17, -184000.06, -184080.22, -184061.00, 187500.00, 0.000, 0.000, 0.000, 22:16:12.126, 1541906172126
60, -183876.17, -182703.28, -183917.80, -182669.77, -183998.86, -184079.06, -184059.77, 187500.00, 0.000, 0.000, 0.000, 22:16:12.126, 1541906172126
61, -183902.33, -182848.13, -183944.14, -182839.23, -184024.81, -184104.97, -184085.73, 187500.00, 0.000, 0.000, 0.000, 22:16:12.127, 1541906172127
62, -183915.36, -182938.47, -183957.33, -182942.30, -184037.73, -184117.84, -184098.66, 187500.00, -0.220, 0.752, 0.744, 22:16:12.127, 1541906172127
63, -183900.16, -182868.02, -183942.05, -182850.03, -184022.64, -184102.69, -184083.47, 187500.00, 0.000, 0.000, 0.000, 22:16:12.127, 1541906172127
64, -183891.75, -182825.19, -183933.45, -182793.41, -184014.27, -184094.23, -184075.03, 187500.00, 0.000, 0.000, 0.000, 22:16:12.127, 1541906172127
65, -183914.02, -182959.06, -183955.97, -182952.23, -184036.34, -184116.34, -184097.20, 187500.00, 0.000, 0.000, 0.000, 22:16:12.127, 1541906172127
66, -183933.22, -183069.88, -183975.45, -183081.88, -184055.48, -184135.63, -184116.45, 187500.00, 0.000, 0.000, 0.000, 22:16:12.127, 1541906172127
67, -183923.95, -183032.42, -183966.05, -183027.09, -184046.20, -184126.31, -184107.17, 187500.00, 0.000, 0.000, 0.000, 22:16:12.127, 1541906172127
68, -183912.30, -182965.45, -183954.22, -182938.61, -184034.58, -184114.59, -184095.42, 187500.00, 0.000, 0.000, 0.000, 22:16:12.127, 1541906172127
69, -183931.98, -183084.52, -183974.13, -183079.44, -184054.25, -184134.31, -184115.06, 187500.00, 0.000, 0.000, 0.000, 22:16:12.127, 1541906172127
70, -183955.05, -183214.98, -183997.25, -183232.95, -184077.00, -184157.11, -184137.91, 187500.00, 0.000, 0.000, 0.000, 22:16:12.127, 1541906172127
71, -183952.55, -183212.59, -183994.91, -183221.84, -184074.56, -184154.66, -184135.50, 187500.00, 0.000, 0.000, 0.000, 22:16:12.127, 1541906172127
72, -183933.19, -183128.69, -183975.41, -183111.66, -184055.39, -184135.41, -184116.31, 187500.00, -0.266, 0.786, 0.676, 22:16:12.127, 1541906172127
73, -183949.23, -183220.59, -183991.47, -183220.63, -184071.28, -184151.34, -184132.14, 187500.00, 0.000, 0.000, 0.000, 22:16:12.127, 1541906172127
74, -183973.31, -183360.45, -184015.80, -183386.84, -184095.23, -184175.34, -184156.06, 187500.00, 0.000, 0.000, 0.000, 22:16:12.128, 1541906172128
75, -183975.06, -183391.66, -184017.55, -183416.11, -184096.94, -184177.05, -184157.80, 187500.00, 0.000, 0.000, 0.000, 22:16:12.128, 1541906172128
76, -183956.11, -183307.05, -183998.48, -183302.20, -184077.98, -184158.08, -184138.84, 187500.00, 0.000, 0.000, 0.000, 22:16:12.128, 1541906172128
77, -183964.80, -183360.09, -184007.38, -183362.80, -184086.61, -184166.77, -184147.44, 187500.00, 0.000, 0.000, 0.000, 22:16:12.128, 1541906172128
78, -183987.86, -183490.42, -184030.78, -183519.34, -184109.53, -184189.64, -184170.33, 187500.00, 0.000, 0.000, 0.000, 22:16:12.128, 1541906172128
79, -183996.14, -183543.11, -184039.03, -183578.31, -184117.70, -184197.80, -184178.45, 187500.00, 0.000, 0.000, 0.000, 22:16:12.128, 1541906172128
80, -183981.58, -183480.80, -184024.28, -183492.34, -184103.20, -184183.33, -184163.92, 187500.00, 0.000, 0.000, 0.000, 22:16:12.128, 1541906172128
81, -183983.39, -183499.88, -184026.06, -183510.14, -184105.08, -184185.08, -184165.67, 187500.00, 0.000, 0.000, 0.000, 22:16:12.128, 1541906172128
82, -184005.55, -183622.30, -184048.30, -183656.48, -184126.94, -184206.98, -184187.58, 187500.00, -0.332, 0.764, 0.628, 22:16:12.128, 1541906172128
83, -184016.78, -183701.06, -184059.66, -183744.94, -184138.06, -184218.02, -184198.66, 187500.00, 0.000, 0.000, 0.000, 22:16:12.128, 1541906172128
84, -184008.20, -183665.31, -184051.00, -183689.83, -184129.53, -184209.45, -184190.19, 187500.00, 0.000, 0.000, 0.000, 22:16:12.128, 1541906172128
85, -184004.88, -183653.13, -184047.81, -183668.34, -184126.28, -184206.22, -184186.95, 187500.00, 0.000, 0.000, 0.000, 22:16:12.128, 1541906172128
86, -184026.06, -183761.70, -184069.11, -183797.25, -184147.23, -184227.23, -184207.84, 187500.00, 0.000, 0.000, 0.000, 22:16:12.129, 1541906172129
87, -184042.48, -183853.47, -184085.55, -183902.75, -184163.42, -184243.41, -184224.02, 187500.00, 0.000, 0.000, 0.000, 22:16:12.129, 1541906172129
88, -184040.17, -183859.09, -184083.06, -183901.30, -184160.98, -184241.05, -184221.58, 187500.00, 0.000, 0.000, 0.000, 22:16:12.130, 1541906172130
89, -184028.88, -183817.14, -184071.95, -183842.63, -184150.03, -184229.98, -184210.58, 187500.00, 0.000, 0.000, 0.000, 22:16:12.323, 1541906172323
90, -184032.72, -183847.05, -184075.66, -183875.30, -184153.69, -184233.58, -184214.20, 187500.00, 0.000, 0.000, 0.000, 22:16:12.323, 1541906172323
91, -184039.42, -183887.59, -184081.73, -183918.28, -184159.64, -184239.52, -184219.97, 187500.00, -0.334, 0.744, 0.568, 22:16:12.323, 1541906172323
92, -184053.28, -183947.66, -184094.53, -183985.45, -184171.39, -184251.45, -184231.67, 187500.00, 0.000, 0.000, 0.000, 22:16:12.323, 1541906172323
93, -184064.73, -183999.20, -184106.31, -184048.27, -184181.39, -184261.38, -184241.53, 187500.00, 0.000, 0.000, 0.000, 22:16:12.323, 1541906172323
94, -184063.13, -184003.84, -184104.81, -184051.13, -184179.73, -184259.69, -184239.80, 187500.00, 0.000, 0.000, 0.000, 22:16:12.324, 1541906172324
95, -184063.22, -184007.06, -184105.30, -184061.06, -184179.80, -184259.70, -184239.92, 187500.00, 0.000, 0.000, 0.000, 22:16:12.324, 1541906172324
96, -184074.30, -184024.72, -184117.22, -184099.78, -184190.86, -184270.70, -184250.94, 187500.00, 0.000, 0.000, 0.000, 22:16:12.324, 1541906172324
97, -184087.31, -184043.39, -184130.53, -184132.97, -184203.83, -184283.72, -184263.94, 187500.00, 0.000, 0.000, 0.000, 22:16:12.324, 1541906172324
98, -184086.08, -184043.08, -184129.34, -184133.91, -184202.53, -184282.50, -184262.67, 187500.00, 0.000, 0.000, 0.000, 22:16:12.333, 1541906172333
99, -184086.03, -184043.52, -184129.23, -184134.58, -184202.48, -184282.48, -184262.72, 187500.00, 0.000, 0.000, 0.000, 22:16:12.334, 1541906172334
100, -184093.91, -184053.28, -184137.00, -184145.33, -184210.28, -184290.22, -184270.48, 187500.00, 0.000, 0.000, 0.000, 22:16:12.334, 1541906172334
101, -184106.48, -184068.28, -184149.73, -184161.42, -184222.89, -184302.78, -184282.95, 187500.00, -0.432, 0.682, 0.400, 22:16:12.335, 1541906172335
102, -184109.88, -184072.38, -184153.36, -184165.69, -184226.45, -184306.23, -184286.48, 187500.00, 0.000, 0.000, 0.000, 22:16:12.335, 1541906172335
103, -184108.73, -184071.50, -184152.19, -184165.00, -184225.33, -184305.14, -184285.52, 187500.00, 0.000, 0.000, 0.000, 22:16:12.336, 1541906172336
104, -184115.94, -184079.50, -184159.30, -184173.09, -184232.33, -184312.30, -184292.66, 187500.00, 0.000, 0.000, 0.000, 22:16:12.336, 1541906172336
105, -184132.61, -184097.25, -184176.06, -184191.17, -184248.98, -184328.84, -184309.11, 187500.00, 0.000, 0.000, 0.000, 22:16:12.337, 1541906172337
106, -184137.17, -184102.28, -184180.69, -184196.20, -184253.53, -184333.36, -184313.69, 187500.00, 0.000, 0.000, 0.000, 22:16:12.337, 1541906172337
107, -184133.50, -184098.75, -184177.05, -184192.66, -184249.88, -184329.73, -184310.05, 187500.00, 0.000, 0.000, 0.000, 22:16:12.337, 1541906172337
108, -184137.44, -184103.02, -184181.03, -184197.19, -184253.84, -184333.72, -184314.02, 187500.00, 0.000, 0.000, 0.000, 22:16:12.337, 1541906172337
109, -184152.16, -184118.52, -184195.72, -184212.75, -184268.56, -184348.48, -184328.75, 187500.00, 0.000, 0.000, 0.000, 22:16:12.337, 1541906172337
110, -184158.50, -184125.42, -184202.13, -184219.67, -184274.97, -184354.80, -184335.13, 187500.00, 0.000, 0.000, 0.000, 22:16:12.337, 1541906172337
111, -184155.81, -184122.84, -184199.42, -184217.06, -184272.27, -184352.05, -184332.42, 187500.00, -0.452, 0.642, 0.308, 22:16:12.338, 1541906172338
112, -184161.05, -184128.34, -184204.75, -184222.67, -184277.50, -184357.36, -184337.64, 187500.00, 0.000, 0.000, 0.000, 22:16:12.338, 1541906172338
113, -184177.20, -184145.02, -184221.02, -184239.39, -184293.69, -184373.50, -184353.78, 187500.00, 0.000, 0.000, 0.000, 22:16:12.338, 1541906172338
114, -184186.69, -184154.83, -184230.63, -184249.36, -184303.16, -184382.95, -184363.23, 187500.00, 0.000, 0.000, 0.000, 22:16:12.338, 1541906172338
115, -184184.42, -184152.64, -184228.25, -184247.23, -184300.78, -184380.67, -184360.95, 187500.00, 0.000, 0.000, 0.000, 22:16:12.338, 1541906172338
116, -184187.00, -184155.41, -184230.88, -184249.89, -184303.36, -184383.27, -184363.48, 187500.00, 0.000, 0.000, 0.000, 22:16:12.339, 1541906172339
117, -184199.41, -184168.08, -184243.23, -184262.67, -184315.81, -184395.61, -184375.83, 187500.00, 0.000, 0.000, 0.000, 22:16:12.339, 1541906172339
118, -184211.81, -184180.98, -184255.80, -184275.53, -184328.33, -184408.13, -184388.30, 187500.00, 0.000, 0.000, 0.000, 22:16:12.339, 1541906172339
119, -184211.11, -184180.48, -184255.23, -184274.92, -184327.70, -184407.45, -184387.63, 187500.00, 0.000, 0.000, 0.000, 22:16:12.339, 1541906172339
120, -184212.61, -184182.14, -184256.70, -184276.45, -184329.16, -184408.88, -184389.17, 187500.00, 0.000, 0.000, 0.000, 22:16:12.339, 1541906172339
121, -184221.50, -184191.25, -184265.58, -184285.56, -184337.95, -184417.67, -184397.95, 187500.00, -0.518, 0.630, 0.240, 22:16:12.339, 1541906172339
122, -184236.75, -184206.63, -184280.83, -184301.08, -184353.14, -184432.84, -184413.03, 187500.00, 0.000, 0.000, 0.000, 22:16:12.339, 1541906172339
123, -184238.20, -184208.20, -184282.48, -184302.67, -184354.59, -184434.34, -184414.53, 187500.00, 0.000, 0.000, 0.000, 22:16:12.340, 1541906172340
124, -184237.75, -184207.63, -184281.97, -184302.23, -184354.03, -184433.88, -184413.98, 187500.00, 0.000, 0.000, 0.000, 22:16:12.340, 1541906172340
125, -184244.08, -184214.27, -184288.34, -184308.83, -184360.47, -184440.23, -184420.42, 187500.00, 0.000, 0.000, 0.000, 22:16:12.340, 1541906172340
126, -184257.73, -184228.08, -184301.95, -184322.67, -184374.08, -184453.81, -184434.11, 187500.00, 0.000, 0.000, 0.000, 22:16:12.340, 1541906172340
127, -184257.72, -184228.08, -184301.95, -184322.72, -184374.08, -184453.88, -184433.98, 187500.00, 0.000, 0.000, 0.000, 22:16:12.340, 1541906172340
128, -184255.80, -184226.20, -184299.97, -184320.80, -184372.17, -184451.89, -184431.97, 187500.00, 0.000, 0.000, 0.000, 22:16:12.340, 1541906172340
129, -184259.86, -184230.38, -184304.09, -184324.97, -184376.19, -184455.95, -184436.06, 187500.00, 0.000, 0.000, 0.000, 22:16:12.340, 1541906172340
130, -184270.25, -184241.05, -184314.63, -184335.61, -184386.59, -184466.42, -184446.52, 187500.00, -0.592, 0.636, 0.210, 22:16:12.340, 1541906172340
131, -184270.55, -184241.38, -184314.89, -184335.97, -184386.86, -184466.80, -184446.81, 187500.00, 0.000, 0.000, 0.000, 22:16:12.340, 1541906172340
132, -184265.88, -184236.69, -184310.16, -184331.17, -184382.16, -184462.06, -184441.97, 187500.00, 0.000, 0.000, 0.000, 22:16:12.341, 1541906172341
133, -184266.34, -184237.25, -184310.67, -184331.70, -184382.64, -184462.44, -184442.47, 187500.00, 0.000, 0.000, 0.000, 22:16:12.341, 1541906172341
134, -184273.92, -184245.02, -184318.33, -184339.56, -184390.31, -184470.11, -184450.20, 187500.00, 0.000, 0.000, 0.000, 22:16:12.341, 1541906172341
135, -184276.53, -184247.69, -184320.95, -184342.19, -184392.94, -184472.67, -184452.84, 187500.00, 0.000, 0.000, 0.000, 22:16:12.342, 1541906172342
136, -184271.48, -184242.50, -184315.88, -184336.97, -184387.98, -184467.64, -184447.73, 187500.00, 0.000, 0.000, 0.000, 22:16:12.342, 1541906172342
137, -184267.81, -184238.81, -184312.23, -184333.31, -184384.27, -184464.00, -184444.16, 187500.00, 0.000, 0.000, 0.000, 22:16:12.342, 1541906172342
138, -184270.38, -184241.44, -184314.83, -184335.86, -184386.81, -184466.53, -184446.77, 187500.00, 0.000, 0.000, 0.000, 22:16:12.342, 1541906172342
139, -184272.95, -184244.00, -184317.33, -184338.34, -184389.38, -184468.98, -184449.19, 187500.00, 0.000, 0.000, 0.000, 22:16:12.342, 1541906172342
140, -184266.52, -184237.36, -184310.83, -184331.80, -184382.81, -184462.55, -184442.63, 187500.00, -0.644, 0.620, 0.200, 22:16:12.342, 1541906172342
141, -184259.42, -184230.27, -184303.77, -184324.59, -184375.88, -184455.50, -184435.70, 187500.00, 0.000, 0.000, 0.000, 22:16:12.342, 1541906172342
142, -184259.61, -184230.42, -184303.97, -184324.81, -184376.00, -184455.78, -184435.80, 187500.00, 0.000, 0.000, 0.000, 22:16:12.342, 1541906172342
143, -184259.27, -184230.00, -184303.53, -184324.48, -184375.53, -184455.23, -184435.34, 187500.00, 0.000, 0.000, 0.000, 22:16:12.342, 1541906172342
144, -184251.14, -184221.70, -184295.30, -184316.19, -184367.31, -184447.06, -184427.19, 187500.00, 0.000, 0.000, 0.000, 22:16:12.342, 1541906172342
145, -184243.13, -184213.58, -184287.27, -184308.08, -184359.34, -184439.06, -184419.25, 187500.00, 0.000, 0.000, 0.000, 22:16:12.343, 1541906172343
146, -184241.09, -184211.61, -184285.34, -184306.08, -184357.34, -184437.14, -184417.33, 187500.00, 0.000, 0.000, 0.000, 22:16:12.343, 1541906172343
147, -184244.34, -184214.94, -184288.72, -184309.44, -184360.58, -184440.42, -184420.61, 187500.00, 0.000, 0.000, 0.000, 22:16:12.343, 1541906172343
148, -184235.50, -184205.80, -184279.73, -184300.34, -184351.61, -184431.50, -184411.63, 187500.00, 0.000, 0.000, 0.000, 22:16:12.343, 1541906172343
149, -184226.09, -184196.31, -184270.22, -184290.80, -184342.19, -184422.05, -184402.20, 187500.00, 0.000, 0.000, 0.000, 22:16:12.343, 1541906172343
150, -184223.34, -184193.55, -184267.47, -184288.00, -184339.45, -184419.30, -184399.52, 187500.00, -0.612, 0.676, 0.178, 22:16:12.343, 1541906172343
151, -184229.33, -184199.58, -184273.52, -184294.02, -184345.41, -184425.31, -184405.50, 187500.00, 0.000, 0.000, 0.000, 22:16:12.343, 1541906172343
152, -184223.05, -184193.23, -184267.33, -184287.64, -184339.13, -184419.09, -184399.25, 187500.00, 0.000, 0.000, 0.000, 22:16:12.343, 1541906172343
153, -184212.05, -184182.09, -184256.23, -184276.63, -184328.23, -184408.13, -184388.30, 187500.00, 0.000, 0.000, 0.000, 22:16:12.343, 1541906172343
154, -184208.91, -184178.88, -184252.95, -184273.31, -184325.11, -184405.03, -184385.17, 187500.00, 0.000, 0.000, 0.000, 22:16:12.343, 1541906172343
155, -184213.06, -184183.08, -184257.14, -184277.61, -184329.23, -184409.19, -184389.33, 187500.00, 0.000, 0.000, 0.000, 22:16:12.344, 1541906172344
156, -184209.75, -184179.73, -184253.94, -184274.25, -184326.02, -184405.84, -184386.06, 187500.00, 0.000, 0.000, 0.000, 22:16:12.344, 1541906172344
157, -184199.41, -184169.19, -184243.56, -184263.78, -184315.66, -184395.42, -184375.78, 187500.00, 0.000, 0.000, 0.000, 22:16:12.344, 1541906172344
158, -184192.45, -184162.09, -184236.58, -184256.67, -184308.81, -184388.56, -184368.84, 187500.00, 0.000, 0.000, 0.000, 22:16:12.344, 1541906172344
159, -184194.44, -184164.11, -184238.56, -184258.59, -184310.67, -184390.58, -184370.75, 187500.00, 0.000, 0.000, 0.000, 22:16:12.344, 1541906172344
160, -184190.86, -184160.47, -184234.97, -184254.91, -184306.98, -184387.00, -184367.17, 187500.00, -0.678, 0.648, 0.202, 22:16:12.344, 1541906172344
161, -184180.56, -184150.03, -184224.66, -184244.39, -184296.81, -184376.72, -184357.00, 187500.00, 0.000, 0.000, 0.000, 22:16:12.344, 1541906172344
162, -184172.22, -184141.42, -184216.13, -184235.77, -184288.42, -184368.33, -184348.52, 187500.00, 0.000, 0.000, 0.000, 22:16:12.344, 1541906172344
163, -184169.63, -184138.66, -184213.55, -184233.06, -184285.95, -184365.77, -184345.89, 187500.00, 0.000, 0.000, 0.000, 22:16:12.344, 1541906172344
164, -184167.13, -184136.14, -184211.20, -184230.53, -184283.53, -184363.38, -184343.53, 187500.00, 0.000, 0.000, 0.000, 22:16:12.344, 1541906172344
165, -184156.34, -184125.06, -184200.25, -184219.45, -184272.67, -184352.53, -184332.69, 187500.00, 0.000, 0.000, 0.000, 22:16:12.345, 1541906172345
166, -184144.92, -184113.45, -184188.81, -184207.81, -184261.34, -184341.14, -184321.28, 187500.00, 0.000, 0.000, 0.000, 22:16:12.345, 1541906172345
167, -184144.17, -184112.55, -184188.06, -184206.84, -184260.63, -184340.44, -184320.66, 187500.00, 0.000, 0.000, 0.000, 22:16:12.345, 1541906172345
168, -184141.28, -184109.39, -184185.08, -184203.77, -184257.69, -184337.56, -184317.81, 187500.00, 0.000, 0.000, 0.000, 22:16:12.345, 1541906172345
169, -184128.23, -184095.89, -184171.94, -184190.28, -184244.58, -184324.45, -184304.61, 187500.00, 0.000, 0.000, 0.000, 22:16:12.345, 1541906172345
170, -184118.17, -184085.27, -184161.77, -184179.64, -184234.30, -184314.31, -184294.47, 187500.00, -0.726, 0.588, 0.182, 22:16:12.345, 1541906172345
171, -184112.91, -184079.55, -184156.50, -184174.09, -184229.02, -184309.08, -184289.23, 187500.00, 0.000, 0.000, 0.000, 22:16:12.345, 1541906172345
172, -184112.08, -184078.59, -184155.84, -184173.23, -184228.48, -184308.39, -184288.58, 187500.00, 0.000, 0.000, 0.000, 22:16:12.345, 1541906172345
173, -184100.41, -184066.34, -184144.02, -184160.84, -184216.80, -184296.70, -184276.88, 187500.00, 0.000, 0.000, 0.000, 22:16:12.345, 1541906172345
174, -184087.53, -184052.55, -184131.03, -184146.97, -184203.78, -184283.69, -184263.95, 187500.00, 0.000, 0.000, 0.000, 22:16:12.345, 1541906172345
175, -184079.80, -184044.02, -184123.36, -184138.50, -184196.00, -184276.06, -184256.23, 187500.00, 0.000, 0.000, 0.000, 22:16:12.345, 1541906172345
176, -184076.98, -184040.50, -184120.50, -184135.03, -184193.25, -184273.34, -184253.48, 187500.00, 0.000, 0.000, 0.000, 22:16:12.346, 1541906172346
177, -184068.67, -184030.89, -184112.20, -184125.11, -184185.05, -184265.11, -184245.20, 187500.00, 0.000, 0.000, 0.000, 22:16:12.346, 1541906172346
178, -184054.88, -184015.00, -184098.28, -184108.67, -184171.22, -184251.28, -184231.41, 187500.00, 0.000, 0.000, 0.000, 22:16:12.346, 1541906172346
179, -184045.69, -184003.27, -184089.00, -184096.20, -184162.08, -184241.98, -184222.28, 187500.00, -0.650, 0.616, 0.184, 22:16:12.346, 1541906172346
180, -184043.86, -183998.14, -184087.06, -184090.86, -184160.20, -184240.14, -184220.36, 187500.00, 0.000, 0.000, 0.000, 22:16:12.346, 1541906172346
181, -184034.27, -183981.52, -184077.20, -184069.31, -184150.56, -184230.64, -184210.84, 187500.00, 0.000, 0.000, 0.000, 22:16:12.347, 1541906172347
182, -184020.14, -183940.34, -184062.25, -184006.03, -184137.16, -184217.28, -184197.55, 187500.00, 0.000, 0.000, 0.000, 22:16:12.347, 1541906172347
183, -184005.52, -183873.48, -184047.72, -183931.25, -184124.72, -184204.75, -184185.13, 187500.00, 0.000, 0.000, 0.000, 22:16:12.347, 1541906172347
184, -183999.02, -183816.97, -184042.14, -183880.84, -184119.69, -184199.58, -184180.27, 187500.00, 0.000, 0.000, 0.000, 22:16:12.782, 1541906172782
185, -183994.69, -183755.88, -184037.95, -183822.73, -184115.73, -184195.64, -184176.28, 187500.00, 0.000, 0.000, 0.000, 22:16:12.782, 1541906172782
186, -183982.33, -183672.89, -184025.45, -183728.34, -184103.52, -184183.59, -184164.08, 187500.00, 0.000, 0.000, 0.000, 22:16:12.782, 1541906172782
187, -183969.09, -183593.22, -184012.11, -183639.78, -184090.44, -184170.56, -184151.02, 187500.00, 0.000, 0.000, 0.000, 22:16:12.782, 1541906172782
188, -183962.98, -183531.08, -184005.97, -183578.78, -184084.42, -184164.55, -184145.05, 187500.00, 0.000, 0.000, 0.000, 22:16:12.782, 1541906172782
189, -183958.47, -183470.59, -184001.44, -183521.27, -184080.05, -184160.11, -184140.66, 187500.00, -0.708, 0.596, 0.242, 22:16:12.782, 1541906172782
190, -183946.11, -183391.56, -183988.92, -183429.50, -184067.69, -184147.72, -184128.45, 187500.00, 0.000, 0.000, 0.000, 22:16:12.783, 1541906172783
191, -183933.48, -183315.02, -183976.16, -183341.78, -184055.03, -184135.16, -184115.98, 187500.00, 0.000, 0.000, 0.000, 22:16:12.783, 1541906172783
192, -183928.16, -183252.14, -183970.83, -183278.44, -184049.84, -184130.00, -184110.73, 187500.00, 0.000, 0.000, 0.000, 22:16:12.783, 1541906172783
193, -183926.22, -183198.11, -183968.86, -183230.59, -184048.11, -184128.20, -184108.92, 187500.00, 0.000, 0.000, 0.000, 22:16:12.783, 1541906172783
194, -183916.30, -183129.33, -183958.78, -183151.11, -184038.22, -184118.27, -184098.95, 187500.00, 0.000, 0.000, 0.000, 22:16:12.783, 1541906172783
195, -183906.39, -183061.78, -183948.86, -183071.36, -184028.41, -184108.45, -184089.20, 187500.00, 0.000, 0.000, 0.000, 22:16:12.783, 1541906172783
196, -183899.39, -183009.78, -183941.69, -183017.55, -184021.41, -184101.45, -184082.23, 187500.00, 0.000, 0.000, 0.000, 22:16:12.783, 1541906172783
197, -183897.58, -182967.84, -183939.92, -182984.58, -184019.73, -184099.83, -184080.59, 187500.00, 0.000, 0.000, 0.000, 22:16:12.783, 1541906172783
198, -183891.28, -182913.92, -183933.53, -182925.19, -184013.41, -184093.47, -184074.41, 187500.00, 0.000, 0.000, 0.000, 22:16:12.783, 1541906172783
199, -183881.20, -182858.61, -183923.42, -182858.86, -184003.36, -184083.47, -184064.33, 187500.00, -0.694, 0.608, 0.332, 22:16:12.784, 1541906172784
200, -183877.88, -182813.38, -183920.14, -182812.16, -184000.16, -184080.33, -184061.16, 187500.00, 0.000, 0.000, 0.000, 22:16:12.784, 1541906172784
201, -183878.88, -182781.19, -183921.08, -182789.97, -184001.16, -184081.42, -184062.16, 187500.00, 0.000, 0.000, 0.000, 22:16:12.784, 1541906172784
202, -183875.80, -182742.42, -183917.81, -182748.91, -183998.08, -184078.33, -184059.09, 187500.00, 0.000, 0.000, 0.000, 22:16:12.784, 1541906172784
203, -183869.06, -182698.09, -183910.89, -182692.63, -183991.42, -184071.61, -184052.44, 187500.00, 0.000, 0.000, 0.000, 22:16:12.784, 1541906172784
204, -183864.69, -182662.45, -183906.45, -182654.63, -183987.02, -184067.19, -184047.98, 187500.00, 0.000, 0.000, 0.000, 22:16:12.784, 1541906172784
205, -183864.75, -182637.69, -183906.73, -182639.92, -183987.28, -184067.39, -184048.19, 187500.00, 0.000, 0.000, 0.000, 22:16:12.784, 1541906172784
206, -183862.00, -182608.09, -183903.98, -182614.48, -183984.63, -184064.78, -184045.59, 187500.00, 0.000, 0.000, 0.000, 22:16:12.784, 1541906172784
207, -183856.95, -182571.36, -183898.88, -182567.83, -183979.58, -184059.69, -184040.48, 187500.00, 0.000, 0.000, 0.000, 22:16:12.784, 1541906172784
208, -183852.22, -182540.92, -183894.03, -182532.56, -183974.78, -184055.02, -184035.78, 187500.00, 0.000, 0.000, 0.000, 22:16:12.785, 1541906172785
209, -183853.08, -182522.03, -183894.86, -182522.30, -183975.73, -184055.95, -184036.77, 187500.00, -0.614, 0.648, 0.378, 22:16:12.785, 1541906172785
210, -183854.16, -182502.75, -183895.86, -182510.66, -183976.83, -184057.02, -184037.89, 187500.00, 0.000, 0.000, 0.000, 22:16:12.785, 1541906172785
211, -183848.09, -182476.22, -183889.78, -182475.08, -183970.77, -184050.94, -184031.89, 187500.00, 0.000, 0.000, 0.000, 22:16:12.785, 1541906172785
212, -183842.05, -182454.88, -183883.75, -182447.22, -183964.81, -184044.91, -184025.86, 187500.00, 0.000, 0.000, 0.000, 22:16:12.785, 1541906172785
213, -183843.03, -182440.88, -183884.78, -182439.58, -183965.83, -184045.95, -184026.80, 187500.00, 0.000, 0.000, 0.000, 22:16:12.785, 1541906172785
214, -183842.78, -182429.81, -183884.53, -182437.14, -183965.67, -184045.75, -184026.52, 187500.00, 0.000, 0.000, 0.000, 22:16:12.785, 1541906172785
215, -183838.11, -182409.14, -183879.80, -182410.20, -183960.91, -184041.11, -184021.77, 187500.00, 0.000, 0.000, 0.000, 22:16:12.785, 1541906172785
216, -183834.84, -182390.78, -183876.48, -182384.33, -183957.67, -184037.81, -184018.55, 187500.00, 0.000, 0.000, 0.000, 22:16:12.785, 1541906172785
217, -183837.38, -182379.55, -183878.91, -182375.75, -183960.22, -184040.39, -184021.17, 187500.00, 0.000, 0.000, 0.000, 22:16:12.785, 1541906172785
218, -183838.84, -182372.61, -183880.36, -182378.73, -183961.56, -184041.70, -184022.67, 187500.00, 0.000, 0.000, 0.000, 22:16:12.785, 1541906172785
219, -183834.08, -182358.89, -183875.64, -182360.44, -183956.89, -184037.03, -184017.92, 187500.00, -0.650, 0.638, 0.374, 22:16:12.786, 1541906172786
220, -183830.50, -182345.38, -183872.08, -182340.42, -183953.42, -184033.44, -184014.34, 187500.00, 0.000, 0.000, 0.000, 22:16:12.786, 1541906172786
221, -183829.33, -182336.67, -183870.89, -182333.55, -183952.22, -184032.34, -184013.25, 187500.00, 0.000, 0.000, 0.000, 22:16:12.786, 1541906172786
222, -183829.81, -182333.14, -183871.39, -182339.69, -183952.59, -184032.75, -184013.77, 187500.00, 0.000, 0.000, 0.000, 22:16:12.787, 1541906172787
223, -183830.73, -182322.17, -183872.17, -182326.73, -183953.38, -184033.58, -184014.66, 187500.00, 0.000, 0.000, 0.000, 22:16:12.787, 1541906172787
224, -183828.39, -182308.36, -183869.78, -182305.72, -183951.16, -184031.41, -184012.31, 187500.00, 0.000, 0.000, 0.000, 22:16:12.787, 1541906172787
225, -183825.86, -182299.53, -183867.20, -182297.27, -183948.75, -184028.97, -184009.77, 187500.00, 0.000, 0.000, 0.000, 22:16:12.787, 1541906172787
226, -183829.08, -182298.45, -183870.50, -182305.45, -183951.97, -184032.13, -184012.98, 187500.00, 0.000, 0.000, 0.000, 22:16:12.788, 1541906172788
227, -183829.44, -182293.89, -183870.92, -182301.89, -183952.38, -184032.50, -184013.36, 187500.00, 0.000, 0.000, 0.000, 22:16:12.788, 1541906172788
228, -183826.34, -182285.48, -183867.80, -182285.83, -183949.13, -184029.27, -184010.34, 187500.00, -0.654, 0.640, 0.354, 22:16:12.788, 1541906172788
229, -183826.22, -182280.66, -183867.61, -182279.23, -183948.88, -184029.11, -184010.08, 187500.00, 0.000, 0.000, 0.000, 22:16:12.788, 1541906172788
230, -183827.83, -182282.42, -183869.25, -182289.02, -183950.58, -184030.73, -184011.75, 187500.00, 0.000, 0.000, 0.000, 22:16:12.788, 1541906172788
231, -183827.80, -182280.77, -183869.22, -182292.48, -183950.52, -184030.64, -184011.72, 187500.00, 0.000, 0.000, 0.000, 22:16:12.788, 1541906172788
232, -183822.80, -182272.33, -183864.19, -182277.17, -183945.58, -184025.81, -184006.69, 187500.00, 0.000, 0.000, 0.000, 22:16:12.788, 1541906172788
233, -183822.75, -182267.78, -183864.14, -182269.23, -183945.59, -184025.80, -184006.64, 187500.00, 0.000, 0.000, 0.000, 22:16:12.788, 1541906172788
234, -183825.14, -182271.16, -183866.52, -182279.63, -183947.98, -184028.25, -184009.08, 187500.00, 0.000, 0.000, 0.000, 22:16:12.788, 1541906172788
235, -183826.03, -182275.05, -183867.45, -182289.36, -183948.91, -184029.14, -184010.03, 187500.00, 0.000, 0.000, 0.000, 22:16:12.788, 1541906172788
236, -183823.52, -182269.42, -183864.97, -182278.02, -183946.38, -184026.55, -184007.44, 187500.00, 0.000, 0.000, 0.000, 22:16:12.788, 1541906172788
237, -183821.95, -182264.67, -183863.59, -182270.13, -183944.77, -184025.06, -184005.83, 187500.00, 0.000, 0.000, 0.000, 22:16:12.789, 1541906172789
238, -183824.47, -182267.94, -183866.06, -182278.25, -183947.30, -184027.66, -184008.45, 187500.00, -0.610, 0.668, 0.340, 22:16:12.789, 1541906172789
239, -183828.09, -182274.41, -183869.73, -182292.34, -183950.92, -184031.19, -184011.94, 187500.00, 0.000, 0.000, 0.000, 22:16:12.789, 1541906172789
240, -183826.13, -182267.34, -183867.61, -182280.80, -183948.91, -184029.11, -184009.92, 187500.00, 0.000, 0.000, 0.000, 22:16:12.789, 1541906172789
241, -183823.75, -182259.45, -183865.31, -182268.05, -183946.67, -184026.84, -184007.69, 187500.00, 0.000, 0.000, 0.000, 22:16:12.789, 1541906172789
242, -183825.55, -182259.98, -183867.09, -182272.03, -183948.41, -184028.70, -184009.48, 187500.00, 0.000, 0.000, 0.000, 22:16:12.789, 1541906172789
243, -183827.25, -182267.98, -183868.73, -182289.28, -183950.06, -184030.33, -184011.16, 187500.00, 0.000, 0.000, 0.000, 22:16:12.789, 1541906172789
244, -183826.75, -182261.19, -183868.28, -182280.39, -183949.58, -184029.75, -184010.69, 187500.00, 0.000, 0.000, 0.000, 22:16:12.789, 1541906172789
245, -183822.63, -182248.30, -183864.14, -182265.19, -183945.38, -184025.70, -184006.50, 187500.00, 0.000, 0.000, 0.000, 22:16:12.789, 1541906172789
246, -183813.50, -182151.88, -183857.27, -182453.28, -183937.34, -184016.92, -183997.56, 187500.00, 0.000, 0.000, 0.000, 22:16:12.789, 1541906172789
247, -183696.31, -180730.88, -183763.92, -183436.52, -183839.53, -183905.09, -183881.97, 187500.00, 0.000, 0.000, 0.000, 22:16:12.790, 1541906172790
248, -175094.58, -179281.80, -182813.84, -182844.23, -182873.67, -182938.52, -175029.08, 187500.00, -0.538, 0.630, 0.398, 22:16:12.790, 1541906172790
249, -91786.97, -175094.00, -175664.83, -175690.00, -175719.94, -175796.67, -90963.05, 187500.00, 0.000, 0.000, 0.000, 22:16:12.790, 1541906172790
250, 36611.62, -165069.55, -165124.67, -165150.48, -165182.06, -165255.84, 37393.15, 187500.00, 0.000, 0.000, 0.000, 22:16:12.790, 1541906172790
251, 127821.33, -157399.09, -157474.16, -157501.92, -157533.77, -157604.52, 128326.03, 187500.00, 0.000, 0.000, 0.000, 22:16:12.790, 1541906172790
252, 164653.38, -152367.88, -152432.81, -152468.78, -152505.30, -152573.88, 164887.53, 187500.00, 0.000, 0.000, 0.000, 22:16:12.790, 1541906172790
253, 167496.28, -149486.92, -149547.42, -149587.64, -149627.36, -149694.30, 167681.23, 187500.00, 0.000, 0.000, 0.000, 22:16:12.790, 1541906172790
254, 167462.86, -148130.06, -148207.75, -148241.70, -148278.52, -148344.83, 167647.48, 187500.00, 0.000, 0.000, 0.000, 22:16:12.790, 1541906172790
255, 167447.00, -147460.06, -147547.41, -147578.34, -147613.55, -147680.89, 167629.88, 187500.00, 0.000, 0.000, 0.000, 22:16:12.790, 1541906172790
0, 167433.98, -146365.28, -146929.03, -147061.47, -147098.92, -147165.16, 167617.02, 187500.00, 0.000, 0.000, 0.000, 22:16:12.790, 1541906172790
1, 167389.44, -135913.22, -136613.44, -145525.59, -145579.56, -145641.09, 167578.88, 187500.00, 0.000, 0.000, 0.000, 22:16:12.790, 1541906172790
2, 167348.69, -114554.32, -111043.15, -140381.63, -143698.73, -143758.28, 167531.92, 187500.00, -0.570, 0.708, 0.354, 22:16:12.790, 1541906172790
3, 167308.64, -89936.95, -89853.43, -118485.19, -141573.11, -141637.13, 167478.22, 187500.00, 0.000, 0.000, 0.000, 22:16:12.791, 1541906172791
4, 167276.83, -68648.84, -62667.05, -94643.95, -136170.78, -136607.22, 167436.27, 187500.00, 0.000, 0.000, 0.000, 22:16:12.791, 1541906172791
5, 167249.97, -53310.90, -40012.21, -79969.71, -122573.81, -122495.63, 167404.55, 187500.00, 0.000, 0.000, 0.000, 22:16:12.791, 1541906172791
6, 167230.98, -41628.80, -21044.59, -71436.42, -108757.88, -107473.27, 167381.13, 187500.00, 0.000, 0.000, 0.000, 22:16:12.791, 1541906172791
7, 167216.44, -32369.21, -14147.07, -63025.26, -96741.38, -96308.10, 167361.45, 187500.00, 0.000, 0.000, 0.000, 22:16:12.791, 1541906172791
8, 167205.86, -24031.63, -29385.93, -55992.86, -83999.40, -87135.37, 160050.36, 187500.00, 0.000, 0.000, 0.000, 22:16:12.791, 1541906172791
9, 167192.61, -16048.44, -77133.38, -49693.65, -78446.95, -70077.95, 63587.71, 187500.00, 0.000, 0.000, 0.000, 22:16:12.791, 1541906172791
10, 167169.78, -4989.49, -87654.24, -41047.01, -80086.97, -61860.93, -33113.97, 187500.00, 0.000, 0.000, 0.000, 22:16:12.791, 1541906172791
11, 167139.05, 10438.69, -57181.71, -23711.94, -64566.88, -46196.11, -59387.78, 187500.00, -0.560, 0.710, 0.346, 22:16:12.791, 1541906172791
12, 167108.63, 26111.20, -25756.18, -6579.57, -47271.59, -31884.00, -68057.28, 187500.00, 0.000, 0.000, 0.000, 22:16:12.791, 1541906172791
13, 167080.48, 38702.67, 896.89, 4287.76, -32252.76, -22331.49, -55979.52, 187500.00, 0.000, 0.000, 0.000, 22:16:12.791, 1541906172791
14, 167057.27, 48803.45, 21209.93, 10755.46, -20597.62, -14759.82, -31621.88, 187500.00, 0.000, 0.000, 0.000, 22:16:12.791, 1541906172791
15, 167038.16, 57785.65, 34827.17, 15972.80, -10669.00, -4346.63, -12728.31, 187500.00, 0.000, 0.000, 0.000, 22:16:12.792, 1541906172792
16, 167021.80, 65947.39, 46308.30, 22015.78, -267.30, 6241.21, 212.30, 187500.00, 0.000, 0.000, 0.000, 22:16:12.792, 1541906172792
17, 167002.02, 74384.19, 54403.94, 31750.54, 12817.63, 18436.90, 13300.03, 187500.00, 0.000, 0.000, 0.000, 22:16:12.792, 1541906172792
18, 166982.09, 81559.79, 58203.27, 43430.64, 24908.45, 27199.68, 19775.73, 187500.00, 0.000, 0.000, 0.000, 22:16:12.792, 1541906172792
19, 166976.41, 84560.52, 69094.91, 50150.07, 32634.24, 27941.33, 18916.04, 187500.00, 0.000, 0.000, 0.000, 22:16:12.792, 1541906172792
20, 166976.31, 84852.43, 78186.27, 54425.78, 30890.13, 33143.70, 17745.81, 187500.00, 0.000, 0.000, 0.000, 22:16:12.792, 1541906172792
21, 166969.27, 87735.69, 60308.94, 62962.65, 18802.96, 59706.34, 23597.34, 187500.00, -0.606, 0.692, 0.366, 22:16:12.792, 1541906172792
22, 166948.80, 95949.76, 34970.96, 68263.39, 26767.87, 76915.66, 43583.35, 187500.00, 0.000, 0.000, 0.000, 22:16:12.792, 1541906172792
23, 166959.56, 91730.84, 11274.58, 60818.65, 25875.76, 59568.38, 39114.88, 187500.00, 0.000, 0.000, 0.000, 22:16:12.792, 1541906172792
24, 166985.73, 82186.29, -6410.19, 44933.38, 29960.88, 34466.68, 27414.41, 187500.00, 0.000, 0.000, 0.000, 22:16:12.792, 1541906172792
25, 167035.66, 60659.95, -31870.46, 12053.31, 22567.46, 1104.31, 1796.81, 187500.00, 0.000, 0.000, 0.000, 22:16:12.792, 1541906172792
26, 167085.78, 37461.77, -56258.69, 6490.48, 12633.18, -8875.72, -7647.96, 187500.00, 0.000, 0.000, 0.000, 22:16:12.792, 1541906172792
27, 167151.39, 7586.14, -86704.91, -5038.46, -2286.05, -32031.95, -40907.65, 138389.77, 0.000, 0.000, 0.000, 22:16:12.793, 1541906172793
28, 167153.31, 8569.64, -85668.78, -3699.01, 8082.35, -25936.83, -43287.53, -3459.31, 0.000, 0.000, 0.000, 22:16:12.793, 1541906172793
29, 167121.38, 24562.96, -69326.59, -445.51, 29782.89, -6359.92, -28640.25, -53166.62, 0.000, 0.000, 0.000, 22:16:12.793, 1541906172793
30, 167092.61, 37015.11, -56598.62, 15206.74, 41105.73, -8.74, -13513.89, -29803.59, 0.000, 0.000, 0.000, 22:16:12.793, 1541906172793
31, 167073.39, 44224.58, -49238.86, 25585.21, 54042.70, 7395.45, 5547.14, -13570.50, -0.616, 0.688, 0.332, 22:16:12.793, 1541906172793
32, 167046.45, 56897.39, -36319.95, 36035.91, 77094.09, 27819.63, 20440.69, 12275.89, 0.000, 0.000, 0.000, 22:16:12.793, 1541906172793
33, 166990.22, 82887.44, -9806.31, 61724.00, 120262.80, 76061.15, 60612.48, 60034.30, 0.000, 0.000, 0.000, 22:16:12.793, 1541906172793
34, 167022.75, 67859.29, -25182.66, 46676.39, 141521.86, 129999.24, 125866.87, 128479.14, 0.000, 0.000, 0.000, 22:16:12.793, 1541906172793
