%OpenBCI Raw EEG Data
%Number of channels = 8
%Sample Rate = 250.0 Hz
%First Column = SampleIndex
%Last Column = Timestamp 
%Other Columns = EEG data in microvolts followed by Accel Data (in G) interleaved with Aux Data
0, 0.00, 0.00, 0.00, 0.00, 0.00, 0.00, 0.00, 0.00, 0.000, 0.000, 0.000, 22:56:54.528, 1541908614528
1, -195.35, 14827.28, 187500.00, 187500.00, -187500.02, -187500.02, -187500.02, -187500.02, 0.144, 0.792, 0.532, 22:56:55.017, 1541908615017
2, -11.38, 15217.11, 187500.00, 187500.00, -187500.02, -187500.02, -187500.02, -187500.02, 0.000, 0.000, 0.000, 22:56:55.017, 1541908615017
3, -202.04, 15181.46, 187500.00, 187500.00, -187500.02, -187500.02, -187500.02, -187500.02, 0.000, 0.000, 0.000, 22:56:55.017, 1541908615017
4, -353.31, 14912.84, 187500.00, 187500.00, -187500.02, -187500.02, -187500.02, -187500.02, 0.000, 0.000, 0.000, 22:56:55.018, 1541908615018
5, -228.48, 14795.25, 187500.00, 187500.00, -187500.02, -187500.02, -187500.02, -187500.02, 0.000, 0.000, 0.000, 22:56:55.018, 1541908615018
6, 13.97, 15185.35, 187500.00, 187500.00, -187500.02, -187500.02, -187500.02, -187500.02, 0.000, 0.000, 0.000, 22:56:55.019, 1541908615019
7, -162.14, 15209.56, 187500.00, 187500.00, -187500.02, -187500.02, -187500.02, -187500.02, 0.000, 0.000, 0.000, 22:56:55.019, 1541908615019
8, -339.28, 14957.18, 187500.00, 187500.00, -187500.02, -187500.02, -187500.02, -187500.02, 0.140, 0.834, 0.486, 22:56:55.019, 1541908615019
9, -294.31, 14762.99, 187500.00, 187500.00, -187500.02, -187500.02, -187500.02, -187500.02, 0.000, 0.000, 0.000, 22:56:55.021, 1541908615021
10, -28.57, 15098.18, 187500.00, 187500.00, -187500.02, -187500.02, -187500.02, -187500.02, 0.000, 0.000, 0.000, 22:56:55.021, 1541908615021
11, -149.42, 15222.12, 187500.00, 187500.00, -187500.02, -187500.02, -187500.02, -187500.02, 0.000, 0.000, 0.000, 22:56:55.021, 1541908615021
12, -378.33, 14972.61, 187500.00, 187500.00, -187500.02, -187500.02, -187500.02, -187500.02, 0.000, 0.000, 0.000, 22:56:55.021, 1541908615021
13, -384.70, 14722.87, 187500.00, 187500.00, -187500.02, -187500.02, -187500.02, -187500.02, 0.000, 0.000, 0.000, 22:56:55.022, 1541908615022
14, -82.79, 15016.59, 187500.00, 187500.00, -187500.02, -187500.02, -187500.02, -187500.02, 0.000, 0.000, 0.000, 22:56:55.022, 1541908615022
15, -118.91, 15245.34, 187500.00, 187500.00, -187500.02, -187500.02, -187500.02, -187500.02, 0.000, 0.000, 0.000, 22:56:55.022, 1541908615022
16, -350.56, 15035.79, 187500.00, 187500.00, -187500.02, -187500.02, -187500.02, -187500.02, 0.000, 0.000, 0.000, 22:56:55.022, 1541908615022
17, -403.05, 14758.21, 187500.00, 187500.00, -187500.02, -187500.02, -187500.02, -187500.02, 0.146, 0.860, 0.450, 22:56:55.022, 1541908615022
18, -115.92, 14947.19, 187500.00, 187500.00, -187500.02, -187500.02, -187500.02, -187500.02, 0.000, 0.000, 0.000, 22:56:55.023, 1541908615023
19, -82.14, 15261.26, 187500.00, 187500.00, -187500.02, -187500.02, -187500.02, -187500.02, 0.000, 0.000, 0.000, 22:56:55.023, 1541908615023
20, -318.71, 15083.02, 187500.00, 187500.00, -187500.02, -187500.02, -187500.02, -187500.02, 0.000, 0.000, 0.000, 22:56:55.023, 1541908615023
21, -411.29, 14792.94, 187500.00, 187500.00, -187500.02, -187500.02, -187500.02, -187500.02, 0.000, 0.000, 0.000, 22:56:55.023, 1541908615023
22, -167.28, 14872.38, 187500.00, 187500.00, -187500.02, -187500.02, -187500.02, -187500.02, 0.000, 0.000, 0.000, 22:56:55.023, 1541908615023
23, -53.78, 15238.61, 187500.00, 187500.00, -187500.02, -187500.02, -187500.02, -187500.02, 0.000, 0.000, 0.000, 22:56:55.041, 1541908615041
24, -283.78, 15121.09, 187500.00, 187500.00, -187500.02, -187500.02, -187500.02, -187500.02, 0.000, 0.000, 0.000, 22:56:55.042, 1541908615042
25, -418.27, 14829.09, 187500.00, 187500.00, -187500.02, -187500.02, -187500.02, -187500.02, 0.000, 0.000, 0.000, 22:56:55.043, 1541908615043
26, -233.49, 14801.12, 187500.00, 187500.00, -187500.02, -187500.02, -187500.02, -187500.02, 0.000, 0.000, 0.000, 22:56:55.044, 1541908615044
27, -21.14, 15224.47, 187500.00, 187500.00, -187500.02, -187500.02, -187500.02, -187500.02, 0.166, 0.894, 0.456, 22:56:55.044, 1541908615044
28, -227.23, 15180.25, 187500.00, 187500.00, -187500.02, -187500.02, -187500.02, -187500.02, 0.000, 0.000, 0.000, 22:56:55.045, 1541908615045
29, -401.55, 14891.27, 187500.00, 187500.00, -187500.02, -187500.02, -187500.02, -187500.02, 0.000, 0.000, 0.000, 22:56:55.046, 1541908615046
30, -286.04, 14755.93, 187500.00, 187500.00, -187500.02, -187500.02, -187500.02, -187500.02, 0.000, 0.000, 0.000, 22:56:55.048, 1541908615048
31, -18.02, 15167.69, 187500.00, 187500.00, -187500.02, -187500.02, -187500.02, -187500.02, 0.000, 0.000, 0.000, 22:56:55.048, 1541908615048
32, -188.74, 15212.15, 187500.00, 187500.00, -187500.02, -187500.02, -187500.02, -187500.02, 0.000, 0.000, 0.000, 22:56:55.049, 1541908615049
33, -390.04, 14943.84, 187500.00, 187500.00, -187500.02, -187500.02, -187500.02, -187500.02, 0.000, 0.000, 0.000, 22:56:55.050, 1541908615050
34, -337.20, 14744.22, 187500.00, 187500.00, -187500.02, -187500.02, -187500.02, -187500.02, 0.000, 0.000, 0.000, 22:56:55.050, 1541908615050
35, -32.95, 15109.24, 187500.00, 187500.00, -187500.02, -187500.02, -187500.02, -187500.02, 0.000, 0.000, 0.000, 22:56:55.051, 1541908615051
36, -137.49, 15249.41, 187500.00, 187500.00, -187500.02, -187500.02, -187500.02, -187500.02, 0.000, 0.000, 0.000, 22:56:55.051, 1541908615051
37, -345.80, 15015.90, 187500.00, 187500.00, -187500.02, -187500.02, -187500.02, -187500.02, 0.168, 0.910, 0.454, 22:56:55.052, 1541908615052
38, -353.43, 14766.88, 187500.00, 187500.00, -187500.02, -187500.02, -187500.02, -187500.02, 0.000, 0.000, 0.000, 22:56:55.052, 1541908615052
39, -35.18, 15052.45, 187500.00, 187500.00, -187500.02, -187500.02, -187500.02, -187500.02, 0.000, 0.000, 0.000, 22:56:55.052, 1541908615052
40, -71.61, 15277.80, 187500.00, 187500.00, -187500.02, -187500.02, -187500.02, -187500.02, 0.000, 0.000, 0.000, 22:56:55.052, 1541908615052
41, -311.63, 15068.29, 187500.00, 187500.00, -187500.02, -187500.02, -187500.02, -187500.02, 0.000, 0.000, 0.000, 22:56:55.052, 1541908615052
42, -367.28, 14788.88, 187500.00, 187500.00, -187500.02, -187500.02, -187500.02, -187500.02, 0.000, 0.000, 0.000, 22:56:55.052, 1541908615052
43, -96.13, 14945.45, 187500.00, 187500.00, -187500.02, -187500.02, -187500.02, -187500.02, 0.000, 0.000, 0.000, 22:56:55.052, 1541908615052
44, -53.06, 15248.52, 187500.00, 187500.00, -187500.02, -187500.02, -187500.02, -187500.02, 0.000, 0.000, 0.000, 22:56:55.052, 1541908615052
45, -295.62, 15073.19, 187500.00, 187500.00, -187500.02, -187500.02, -187500.02, -187500.02, 0.000, 0.000, 0.000, 22:56:55.052, 1541908615052
46, -406.71, 14774.64, 187500.00, 187500.00, -187500.02, -187500.02, -187500.02, -187500.02, 0.000, 0.000, 0.000, 22:56:55.053, 1541908615053
47, -185.27, 14821.40, 187500.00, 187500.00, -187500.02, -187500.02, -187500.02, -187500.02, 0.156, 0.894, 0.452, 22:56:55.053, 1541908615053
48, -39.38, 15219.77, 187500.00, 187500.00, -187500.02, -187500.02, -187500.02, -187500.02, 0.000, 0.000, 0.000, 22:56:55.053, 1541908615053
49, -250.67, 15130.54, 187500.00, 187500.00, -187500.02, -187500.02, -187500.02, -187500.02, 0.000, 0.000, 0.000, 22:56:55.053, 1541908615053
50, -395.80, 14836.48, 187500.00, 187500.00, -187500.02, -187500.02, -187500.02, -187500.02, 0.000, 0.000, 0.000, 22:56:55.053, 1541908615053
51, -239.34, 14773.56, 187500.00, 187500.00, -187500.02, -187500.02, -187500.02, -187500.02, 0.000, 0.000, 0.000, 22:56:55.053, 1541908615053
52, -20.38, 15186.38, 187500.00, 187500.00, -187500.02, -187500.02, -187500.02, -187500.02, 0.000, 0.000, 0.000, 22:56:55.053, 1541908615053
53, -221.98, 15158.97, 187500.00, 187500.00, -187500.02, -187500.02, -187500.02, -187500.02, 0.000, 0.000, 0.000, 22:56:55.054, 1541908615054
54, -386.95, 14889.88, 187500.00, 187500.00, -187500.02, -187500.02, -187500.02, -187500.02, 0.000, 0.000, 0.000, 22:56:55.054, 1541908615054
55, -281.90, 14742.79, 187500.00, 187500.00, -187500.02, -187500.02, -187500.02, -187500.02, 0.000, 0.000, 0.000, 22:56:55.054, 1541908615054
56, -12.90, 15132.55, 187500.00, 187500.00, -187500.02, -187500.02, -187500.02, -187500.02, 0.000, 0.000, 0.000, 22:56:55.054, 1541908615054
57, -172.38, 15201.78, 187500.00, 187500.00, -187500.02, -187500.02, -187500.02, -187500.02, 0.150, 0.884, 0.448, 22:56:55.054, 1541908615054
58, -368.45, 14949.94, 187500.00, 187500.00, -187500.02, -187500.02, -187500.02, -187500.02, 0.000, 0.000, 0.000, 22:56:55.054, 1541908615054
59, -330.63, 14727.99, 187500.00, 187500.00, -187500.02, -187500.02, -187500.02, -187500.02, 0.000, 0.000, 0.000, 22:56:55.054, 1541908615054
60, -22.04, 15076.43, 187500.00, 187500.00, -187500.02, -187500.02, -187500.02, -187500.02, 0.000, 0.000, 0.000, 22:56:55.054, 1541908615054
61, -122.93, 15230.84, 187500.00, 187500.00, -187500.02, -187500.02, -187500.02, -187500.02, 0.000, 0.000, 0.000, 22:56:55.054, 1541908615054
62, -348.42, 14992.16, 187500.00, 187500.00, -187500.02, -187500.02, -187500.02, -187500.02, 0.000, 0.000, 0.000, 22:56:55.054, 1541908615054
63, -361.29, 14738.72, 187500.00, 187500.00, -187500.02, -187500.02, -187500.02, -187500.02, 0.000, 0.000, 0.000, 22:56:55.054, 1541908615054
64, -71.70, 14982.89, 187500.00, 187500.00, -187500.02, -187500.02, -187500.02, -187500.02, 0.000, 0.000, 0.000, 22:56:55.054, 1541908615054
65, -91.35, 15230.63, 187500.00, 187500.00, -187500.02, -187500.02, -187500.02, -187500.02, 0.000, 0.000, 0.000, 22:56:55.054, 1541908615054
66, -328.97, 15037.67, 187500.00, 187500.00, -187500.02, -187500.02, -187500.02, -187500.02, 0.150, 0.894, 0.466, 22:56:55.055, 1541908615055
67, -393.97, 14767.53, 187500.00, 187500.00, -187500.02, -187500.02, -187500.02, -187500.02, 0.000, 0.000, 0.000, 22:56:55.055, 1541908615055
68, -111.33, 14913.51, 187500.00, 187500.00, -187500.02, -187500.02, -187500.02, -187500.02, 0.000, 0.000, 0.000, 22:56:55.055, 1541908615055
69, -44.01, 15242.15, 187500.00, 187500.00, -187500.02, -187500.02, -187500.02, -187500.02, 0.000, 0.000, 0.000, 22:56:55.055, 1541908615055
70, -282.12, 15091.14, 187500.00, 187500.00, -187500.02, -187500.02, -187500.02, -187500.02, 0.000, 0.000, 0.000, 22:56:55.055, 1541908615055
71, -396.70, 14796.59, 187500.00, 187500.00, -187500.02, -187500.02, -187500.02, -187500.02, 0.000, 0.000, 0.000, 22:56:55.055, 1541908615055
72, -179.57, 14821.53, 187500.00, 187500.00, -187500.02, -187500.02, -187500.02, -187500.02, 0.000, 0.000, 0.000, 22:56:55.055, 1541908615055
73, -18.69, 15221.16, 187500.00, 187500.00, -187500.02, -187500.02, -187500.02, -187500.02, 0.000, 0.000, 0.000, 22:56:55.055, 1541908615055
74, -238.54, 15138.81, 187500.00, 187500.00, -187500.02, -187500.02, -187500.02, -187500.02, 0.000, 0.000, 0.000, 22:56:55.055, 1541908615055
75, -382.42, 14858.10, 187500.00, 187500.00, -187500.02, -187500.02, -187500.02, -187500.02, 0.000, 0.000, 0.000, 22:56:55.055, 1541908615055
76, -227.85, 14774.61, 187500.00, 187500.00, -187500.02, -187500.02, -187500.02, -187500.02, 0.140, 0.884, 0.470, 22:56:55.055, 1541908615055
77, 6.21, 15187.90, 187500.00, 187500.00, -187500.02, -187500.02, -187500.02, -187500.02, 0.000, 0.000, 0.000, 22:56:55.055, 1541908615055
78, -191.76, 15178.24, 187500.00, 187500.00, -187500.02, -187500.02, -187500.02, -187500.02, 0.000, 0.000, 0.000, 22:56:55.056, 1541908615056
79, -371.42, 14900.72, 187500.00, 187500.00, -187500.02, -187500.02, -187500.02, -187500.02, 0.000, 0.000, 0.000, 22:56:55.056, 1541908615056
80, -292.11, 14729.31, 187500.00, 187500.00, -187500.02, -187500.02, -187500.02, -187500.02, 0.000, 0.000, 0.000, 22:56:55.056, 1541908615056
81, -15.22, 15109.69, 187500.00, 187500.00, -187500.02, -187500.02, -187500.02, -187500.02, 0.000, 0.000, 0.000, 22:56:55.056, 1541908615056
82, -158.68, 15195.97, 187500.00, 187500.00, -187500.02, -187500.02, -187500.02, -187500.02, 0.000, 0.000, 0.000, 22:56:55.056, 1541908615056
83, -362.52, 14938.77, 187500.00, 187500.00, -187500.02, -187500.02, -187500.02, -187500.02, 0.000, 0.000, 0.000, 22:56:55.056, 1541908615056
84, -335.68, 14717.19, 187500.00, 187500.00, -187500.02, -187500.02, -187500.02, -187500.02, 0.000, 0.000, 0.000, 22:56:55.056, 1541908615056
85, -27.92, 15051.49, 187500.00, 187500.00, -187500.02, -187500.02, -187500.02, -187500.02, 0.000, 0.000, 0.000, 22:56:55.056, 1541908615056
86, -113.97, 15221.94, 187500.00, 187500.00, -187500.02, -187500.02, -187500.02, -187500.02, 0.138, 0.876, 0.478, 22:56:55.056, 1541908615056
87, -324.55, 15000.99, 187500.00, 187500.00, -187500.02, -187500.02, -187500.02, -187500.02, 0.000, 0.000, 0.000, 22:56:55.056, 1541908615056
88, -348.73, 14744.15, 187500.00, 187500.00, -187500.02, -187500.02, -187500.02, -187500.02, 0.000, 0.000, 0.000, 22:56:55.056, 1541908615056
89, -49.84, 14980.12, 187500.00, 187500.00, -187500.02, -187500.02, -187500.02, -187500.02, 0.000, 0.000, 0.000, 22:56:55.056, 1541908615056
90, -46.27, 15253.41, 187500.00, 187500.00, -187500.02, -187500.02, -187500.02, -187500.02, 0.000, 0.000, 0.000, 22:56:55.057, 1541908615057
91, -276.94, 15065.28, 187500.00, 187500.00, -187500.02, -187500.02, -187500.02, -187500.02, 0.000, 0.000, 0.000, 22:56:55.057, 1541908615057
92, -363.69, 14771.17, 187500.00, 187500.00, -187500.02, -187500.02, -187500.02, -187500.02, 0.000, 0.000, 0.000, 22:56:55.057, 1541908615057
93, -120.95, 14870.59, 187500.00, 187500.00, -187500.02, -187500.02, -187500.02, -187500.02, 0.000, 0.000, 0.000, 22:56:55.057, 1541908615057
94, -20.21, 15226.03, 187500.00, 187500.00, -187500.02, -187500.02, -187500.02, -187500.02, 0.000, 0.000, 0.000, 22:56:55.057, 1541908615057
95, -240.44, 15099.85, 187500.00, 187500.00, -187500.02, -187500.02, -187500.02, -187500.02, 0.000, 0.000, 0.000, 22:56:55.057, 1541908615057
96, -359.59, 14807.90, 187500.00, 187500.00, -187500.02, -187500.02, -187500.02, -187500.02, 0.146, 0.862, 0.480, 22:56:55.057, 1541908615057
97, -160.31, 14809.68, 187500.00, 187500.00, -187500.02, -187500.02, -187500.02, -187500.02, 0.000, 0.000, 0.000, 22:56:55.057, 1541908615057
98, 21.86, 15217.69, 187500.00, 187500.00, -187500.02, -187500.02, -187500.02, -187500.02, 0.000, 0.000, 0.000, 22:56:55.057, 1541908615057
99, -199.40, 15139.13, 187500.00, 187500.00, -187500.02, -187500.02, -187500.02, -187500.02, 0.000, 0.000, 0.000, 22:56:55.057, 1541908615057
100, -355.75, 14851.68, 187500.00, 187500.00, -187500.02, -187500.02, -187500.02, -187500.02, 0.000, 0.000, 0.000, 22:56:55.057, 1541908615057
101, -213.71, 14758.16, 187500.00, 187500.00, -187500.02, -187500.02, -187500.02, -187500.02, 0.000, 0.000, 0.000, 22:56:55.057, 1541908615057
102, 35.49, 15172.18, 187500.00, 187500.00, -187500.02, -187500.02, -187500.02, -187500.02, 0.000, 0.000, 0.000, 22:56:55.057, 1541908615057
103, -148.30, 15183.12, 187500.00, 187500.00, -187500.02, -187500.02, -187500.02, -187500.02, 0.000, 0.000, 0.000, 22:56:55.058, 1541908615058
104, -328.28, 14910.60, 187500.00, 187500.00, -187500.02, -187500.02, -187500.02, -187500.02, 0.000, 0.000, 0.000, 22:56:55.058, 1541908615058
105, -252.15, 14733.06, 187500.00, 187500.00, -187500.02, -187500.02, -187500.02, -187500.02, 0.148, 0.854, 0.474, 22:56:55.058, 1541908615058
106, 37.48, 15114.03, 187500.00, 187500.00, -187500.02, -187500.02, -187500.02, -187500.02, 0.000, 0.000, 0.000, 22:56:55.058, 1541908615058
107, -98.79, 15210.09, 187500.00, 187500.00, -187500.02, -187500.02, -187500.02, -187500.02, 0.000, 0.000, 0.000, 22:56:55.058, 1541908615058
108, -312.28, 14956.83, 187500.00, 187500.00, -187500.02, -187500.02, -187500.02, -187500.02, 0.000, 0.000, 0.000, 22:56:55.058, 1541908615058
109, -305.01, 14717.82, 187500.00, 187500.00, -187500.02, -187500.02, -187500.02, -187500.02, 0.000, 0.000, 0.000, 22:56:55.058, 1541908615058
110, 1.63, 15031.32, 187500.00, 187500.00, -187500.02, -187500.02, -187500.02, -187500.02, 0.000, 0.000, 0.000, 22:56:55.058, 1541908615058
111, -56.10, 15236.16, 187500.00, 187500.00, -187500.02, -187500.02, -187500.02, -187500.02, 0.000, 0.000, 0.000, 22:56:55.058, 1541908615058
112, -281.52, 15012.86, 187500.00, 187500.00, -187500.02, -187500.02, -187500.02, -187500.02, 0.000, 0.000, 0.000, 22:56:55.058, 1541908615058
113, -326.04, 14737.60, 187500.00, 187500.00, -187500.02, -187500.02, -187500.02, -187500.02, 0.000, 0.000, 0.000, 22:56:55.058, 1541908615058
114, -42.96, 14941.49, 187500.00, 187500.00, -187500.02, -187500.02, -187500.02, -187500.02, 0.000, 0.000, 0.000, 22:56:55.058, 1541908615058
115, -20.81, 15236.25, 187500.00, 187500.00, -187500.02, -187500.02, -187500.02, -187500.02, 0.146, 0.852, 0.474, 22:56:55.058, 1541908615058
116, -245.47, 15067.13, 187500.00, 187500.00, -187500.02, -187500.02, -187500.02, -187500.02, 0.000, 0.000, 0.000, 22:56:55.059, 1541908615059
117, -334.96, 14781.52, 187500.00, 187500.00, -187500.02, -187500.02, -187500.02, -187500.02, 0.000, 0.000, 0.000, 22:56:55.059, 1541908615059
118, -104.40, 14867.13, 187500.00, 187500.00, -187500.02, -187500.02, -187500.02, -187500.02, 0.000, 0.000, 0.000, 22:56:55.059, 1541908615059
119, 5.90, 15235.80, 187500.00, 187500.00, -187500.02, -187500.02, -187500.02, -187500.02, 0.000, 0.000, 0.000, 22:56:55.059, 1541908615059
120, -220.41, 15104.88, 187500.00, 187500.00, -187500.02, -187500.02, -187500.02, -187500.02, 0.000, 0.000, 0.000, 22:56:55.059, 1541908615059
121, -342.70, 14809.89, 187500.00, 187500.00, -187500.02, -187500.02, -187500.02, -187500.02, 0.000, 0.000, 0.000, 22:56:55.490, 1541908615490
122, -154.92, 14790.95, 187500.00, 187500.00, -187500.02, -187500.02, -187500.02, -187500.02, 0.000, 0.000, 0.000, 22:56:55.491, 1541908615491
123, 42.42, 15206.41, 187500.00, 187500.00, -187500.02, -187500.02, -187500.02, -187500.02, 0.000, 0.000, 0.000, 22:56:55.494, 1541908615494
124, -183.66, 15144.04, 187500.00, 187500.00, -187500.02, -187500.02, -187500.02, -187500.02, 0.000, 0.000, 0.000, 22:56:55.495, 1541908615495
125, -348.28, 14855.30, 187500.00, 187500.00, -187500.02, -187500.02, -187500.02, -187500.02, 0.140, 0.860, 0.480, 22:56:55.497, 1541908615497
126, -226.69, 14738.36, 187500.00, 187500.00, -187500.02, -187500.02, -187500.02, -187500.02, 0.000, 0.000, 0.000, 22:56:55.499, 1541908615499
127, 15.96, 15141.85, 187500.00, 187500.00, -187500.02, -187500.02, -187500.02, -187500.02, 0.000, 0.000, 0.000, 22:56:55.499, 1541908615499
128, -149.13, 15177.95, 187500.00, 187500.00, -187500.02, -187500.02, -187500.02, -187500.02, 0.000, 0.000, 0.000, 22:56:55.500, 1541908615500
129, -337.60, 14906.71, 187500.00, 187500.00, -187500.02, -187500.02, -187500.02, -187500.02, 0.000, 0.000, 0.000, 22:56:55.501, 1541908615501
130, -273.97, 14715.63, 187500.00, 187500.00, -187500.02, -187500.02, -187500.02, -187500.02, 0.000, 0.000, 0.000, 22:56:55.501, 1541908615501
131, 28.21, 15095.23, 187500.00, 187500.00, -187500.02, -187500.02, -187500.02, -187500.02, 0.000, 0.000, 0.000, 22:56:55.502, 1541908615502
132, -88.38, 15217.22, 187500.00, 187500.00, -187500.02, -187500.02, -187500.02, -187500.02, 0.000, 0.000, 0.000, 22:56:55.502, 1541908615502
133, -309.66, 14959.04, 187500.00, 187500.00, -187500.02, -187500.02, -187500.02, -187500.02, 0.000, 0.000, 0.000, 22:56:55.502, 1541908615502
134, -314.13, 14711.69, 187500.00, 187500.00, -187500.02, -187500.02, -187500.02, -187500.02, 0.000, 0.000, 0.000, 22:56:55.503, 1541908615503
135, -5.95, 15005.49, 187500.00, 187500.00, -187500.02, -187500.02, -187500.02, -187500.02, 0.124, 0.860, 0.492, 22:56:55.503, 1541908615503
136, -37.57, 15239.13, 187500.00, 187500.00, -187500.02, -187500.02, -187500.02, -187500.02, 0.000, 0.000, 0.000, 22:56:55.519, 1541908615519
137, -265.43, 15033.07, 187500.00, 187500.00, -187500.02, -187500.02, -187500.02, -187500.02, 0.000, 0.000, 0.000, 22:56:55.520, 1541908615520
138, -326.98, 14747.66, 187500.00, 187500.00, -187500.02, -187500.02, -187500.02, -187500.02, 0.000, 0.000, 0.000, 22:56:55.520, 1541908615520
139, -48.50, 14925.18, 187500.00, 187500.00, -187500.02, -187500.02, -187500.02, -187500.02, 0.000, 0.000, 0.000, 22:56:55.520, 1541908615520
140, -3.11, 15235.06, 187500.00, 187500.00, -187500.02, -187500.02, -187500.02, -187500.02, 0.000, 0.000, 0.000, 22:56:55.520, 1541908615520
141, -239.92, 15065.05, 187500.00, 187500.00, -187500.02, -187500.02, -187500.02, -187500.02, 0.000, 0.000, 0.000, 22:56:55.520, 1541908615520
142, -330.40, 14780.27, 187500.00, 187500.00, -187500.02, -187500.02, -187500.02, -187500.02, 0.000, 0.000, 0.000, 22:56:55.520, 1541908615520
143, -105.66, 14842.88, 187500.00, 187500.00, -187500.02, -187500.02, -187500.02, -187500.02, 0.000, 0.000, 0.000, 22:56:55.520, 1541908615520
144, 20.18, 15222.90, 187500.00, 187500.00, -187500.02, -187500.02, -187500.02, -187500.02, 0.000, 0.000, 0.000, 22:56:55.520, 1541908615520
145, -206.78, 15116.10, 187500.00, 187500.00, -187500.02, -187500.02, -187500.02, -187500.02, 0.102, 0.870, 0.498, 22:56:55.522, 1541908615522
146, -354.63, 14821.93, 187500.00, 187500.00, -187500.02, -187500.02, -187500.02, -187500.02, 0.000, 0.000, 0.000, 22:56:55.522, 1541908615522
147, -185.92, 14776.92, 187500.00, 187500.00, -187500.02, -187500.02, -187500.02, -187500.02, 0.000, 0.000, 0.000, 22:56:55.523, 1541908615523
148, 23.80, 15184.41, 187500.00, 187500.00, -187500.02, -187500.02, -187500.02, -187500.02, 0.000, 0.000, 0.000, 22:56:55.523, 1541908615523
149, -172.69, 15149.88, 187500.00, 187500.00, -187500.02, -187500.02, -187500.02, -187500.02, 0.000, 0.000, 0.000, 22:56:55.523, 1541908615523
150, -329.26, 14879.60, 187500.00, 187500.00, -187500.02, -187500.02, -187500.02, -187500.02, 0.000, 0.000, 0.000, 22:56:55.523, 1541908615523
151, -224.17, 14742.63, 187500.00, 187500.00, -187500.02, -187500.02, -187500.02, -187500.02, 0.000, 0.000, 0.000, 22:56:55.524, 1541908615524
152, 40.59, 15142.03, 187500.00, 187500.00, -187500.02, -187500.02, -187500.02, -187500.02, 0.000, 0.000, 0.000, 22:56:55.524, 1541908615524
153, -121.77, 15191.30, 187500.00, 187500.00, -187500.02, -187500.02, -187500.02, -187500.02, 0.000, 0.000, 0.000, 22:56:55.524, 1541908615524
154, -323.43, 14921.53, 187500.00, 187500.00, -187500.02, -187500.02, -187500.02, -187500.02, 0.078, 0.866, 0.510, 22:56:55.524, 1541908615524
155, -285.52, 14712.88, 187500.00, 187500.00, -187500.02, -187500.02, -187500.02, -187500.02, 0.000, 0.000, 0.000, 22:56:55.524, 1541908615524
156, 11.94, 15064.61, 187500.00, 187500.00, -187500.02, -187500.02, -187500.02, -187500.02, 0.000, 0.000, 0.000, 22:56:55.524, 1541908615524
157, -84.85, 15214.23, 187500.00, 187500.00, -187500.02, -187500.02, -187500.02, -187500.02, 0.000, 0.000, 0.000, 22:56:55.524, 1541908615524
158, -308.34, 14967.71, 187500.00, 187500.00, -187500.02, -187500.02, -187500.02, -187500.02, 0.000, 0.000, 0.000, 22:56:55.524, 1541908615524
159, -322.58, 14715.67, 187500.00, 187500.00, -187500.02, -187500.02, -187500.02, -187500.02, 0.000, 0.000, 0.000, 22:56:55.524, 1541908615524
160, -30.11, 14980.09, 187500.00, 187500.00, -187500.02, -187500.02, -187500.02, -187500.02, 0.000, 0.000, 0.000, 22:56:55.524, 1541908615524
161, -49.80, 15226.75, 187500.00, 187500.00, -187500.02, -187500.02, -187500.02, -187500.02, 0.000, 0.000, 0.000, 22:56:55.525, 1541908615525
162, -281.54, 15020.62, 187500.00, 187500.00, -187500.02, -187500.02, -187500.02, -187500.02, 0.000, 0.000, 0.000, 22:56:55.525, 1541908615525
163, -334.14, 14751.01, 187500.00, 187500.00, -187500.02, -187500.02, -187500.02, -187500.02, 0.000, 0.000, 0.000, 22:56:55.525, 1541908615525
164, -69.63, 14905.86, 187500.00, 187500.00, -187500.02, -187500.02, -187500.02, -187500.02, 0.070, 0.860, 0.516, 22:56:55.525, 1541908615525
165, -16.76, 15222.01, 187500.00, 187500.00, -187500.02, -187500.02, -187500.02, -187500.02, 0.000, 0.000, 0.000, 22:56:55.525, 1541908615525
166, -258.92, 15061.63, 187500.00, 187500.00, -187500.02, -187500.02, -187500.02, -187500.02, 0.000, 0.000, 0.000, 22:56:55.525, 1541908615525
167, -357.34, 14786.59, 187500.00, 187500.00, -187500.02, -187500.02, -187500.02, -187500.02, 0.000, 0.000, 0.000, 22:56:55.525, 1541908615525
168, -133.57, 14825.78, 187500.00, 187500.00, -187500.02, -187500.02, -187500.02, -187500.02, 0.000, 0.000, 0.000, 22:56:55.525, 1541908615525
169, 8.87, 15199.50, 187500.00, 187500.00, -187500.02, -187500.02, -187500.02, -187500.02, 0.000, 0.000, 0.000, 22:56:55.525, 1541908615525
170, -220.41, 15096.12, 187500.00, 187500.00, -187500.02, -187500.02, -187500.02, -187500.02, 0.000, 0.000, 0.000, 22:56:55.525, 1541908615525
171, -353.58, 14813.33, 187500.00, 187500.00, -187500.02, -187500.02, -187500.02, -187500.02, 0.000, 0.000, 0.000, 22:56:55.525, 1541908615525
172, -182.99, 14760.11, 187500.00, 187500.00, -187500.02, -187500.02, -187500.02, -187500.02, 0.000, 0.000, 0.000, 22:56:55.526, 1541908615526
173, 31.20, 15167.07, 187500.00, 187500.00, -187500.02, -187500.02, -187500.02, -187500.02, 0.000, 0.000, 0.000, 22:56:55.526, 1541908615526
174, -166.41, 15144.74, 187500.00, 187500.00, -187500.02, -187500.02, -187500.02, -187500.02, 0.072, 0.856, 0.512, 22:56:55.526, 1541908615526
175, -341.07, 14865.09, 187500.00, 187500.00, -187500.02, -187500.02, -187500.02, -187500.02, 0.000, 0.000, 0.000, 22:56:55.526, 1541908615526
176, -251.73, 14705.26, 187500.00, 187500.00, -187500.02, -187500.02, -187500.02, -187500.02, 0.000, 0.000, 0.000, 22:56:55.526, 1541908615526
177, 25.95, 15103.25, 187500.00, 187500.00, -187500.02, -187500.02, -187500.02, -187500.02, 0.000, 0.000, 0.000, 22:56:55.526, 1541908615526
178, -130.65, 15169.30, 187500.00, 187500.00, -187500.02, -187500.02, -187500.02, -187500.02, 0.000, 0.000, 0.000, 22:56:55.526, 1541908615526
179, -327.63, 14911.32, 187500.00, 187500.00, -187500.02, -187500.02, -187500.02, -187500.02, 0.000, 0.000, 0.000, 22:56:55.526, 1541908615526
180, -304.18, 14682.61, 187500.00, 187500.00, -187500.02, -187500.02, -187500.02, -187500.02, 0.000, 0.000, 0.000, 22:56:55.526, 1541908615526
181, -4.56, 15019.12, 187500.00, 187500.00, -187500.02, -187500.02, -187500.02, -187500.02, 0.000, 0.000, 0.000, 22:56:55.526, 1541908615526
182, -91.46, 15175.96, 187500.00, 187500.00, -187500.02, -187500.02, -187500.02, -187500.02, 0.000, 0.000, 0.000, 22:56:55.526, 1541908615526
183, -308.66, 14941.54, 187500.00, 187500.00, -187500.02, -187500.02, -187500.02, -187500.02, 0.000, 0.000, 0.000, 22:56:55.527, 1541908615527
184, -327.74, 14697.08, 187500.00, 187500.00, -187500.02, -187500.02, -187500.02, -187500.02, 0.080, 0.862, 0.510, 22:56:55.527, 1541908615527
185, -31.49, 14944.58, 187500.00, 187500.00, -187500.02, -187500.02, -187500.02, -187500.02, 0.000, 0.000, 0.000, 22:56:55.559, 1541908615559
186, -42.51, 15197.82, 187500.00, 187500.00, -187500.02, -187500.02, -187500.02, -187500.02, 0.000, 0.000, 0.000, 22:56:55.560, 1541908615560
187, -272.00, 15002.67, 187500.00, 187500.00, -187500.02, -187500.02, -187500.02, -187500.02, 0.000, 0.000, 0.000, 22:56:55.561, 1541908615561
188, -348.06, 14720.32, 187500.00, 187500.00, -187500.02, -187500.02, -187500.02, -187500.02, 0.000, 0.000, 0.000, 22:56:55.561, 1541908615561
189, -93.27, 14850.48, 187500.00, 187500.00, -187500.02, -187500.02, -187500.02, -187500.02, 0.000, 0.000, 0.000, 22:56:55.561, 1541908615561
190, -20.27, 15183.45, 187500.00, 187500.00, -187500.02, -187500.02, -187500.02, -187500.02, 0.000, 0.000, 0.000, 22:56:55.562, 1541908615562
191, -246.85, 15044.20, 187500.00, 187500.00, -187500.02, -187500.02, -187500.02, -187500.02, 0.000, 0.000, 0.000, 22:56:55.562, 1541908615562
192, -347.37, 14770.01, 187500.00, 187500.00, -187500.02, -187500.02, -187500.02, -187500.02, 0.000, 0.000, 0.000, 22:56:55.563, 1541908615563
193, -141.82, 14788.58, 187500.00, 187500.00, -187500.02, -187500.02, -187500.02, -187500.02, 0.078, 0.868, 0.496, 22:56:55.564, 1541908615564
194, 18.24, 15185.46, 187500.00, 187500.00, -187500.02, -187500.02, -187500.02, -187500.02, 0.000, 0.000, 0.000, 22:56:55.565, 1541908615565
195, -198.39, 15105.08, 187500.00, 187500.00, -187500.02, -187500.02, -187500.02, -187500.02, 0.000, 0.000, 0.000, 22:56:55.565, 1541908615565
196, -355.37, 14813.06, 187500.00, 187500.00, -187500.02, -187500.02, -187500.02, -187500.02, 0.000, 0.000, 0.000, 22:56:55.565, 1541908615565
197, -211.92, 14725.42, 187500.00, 187500.00, -187500.02, -187500.02, -187500.02, -187500.02, 0.000, 0.000, 0.000, 22:56:55.566, 1541908615566
198, 17.86, 15129.87, 187500.00, 187500.00, -187500.02, -187500.02, -187500.02, -187500.02, 0.000, 0.000, 0.000, 22:56:55.568, 1541908615568
199, -175.39, 15122.99, 187500.00, 187500.00, -187500.02, -187500.02, -187500.02, -187500.02, 0.000, 0.000, 0.000, 22:56:55.568, 1541908615568
200, -355.39, 14848.93, 187500.00, 187500.00, -187500.02, -187500.02, -187500.02, -187500.02, 0.000, 0.000, 0.000, 22:56:55.568, 1541908615568
201, -279.46, 14683.37, 187500.00, 187500.00, -187500.02, -187500.02, -187500.02, -187500.02, 0.000, 0.000, 0.000, 22:56:55.568, 1541908615568
202, 8.18, 15076.32, 187500.00, 187500.00, -187500.02, -187500.02, -187500.02, -187500.02, 0.000, 0.000, 0.000, 22:56:55.568, 1541908615568
203, -130.49, 15161.50, 187500.00, 187500.00, -187500.02, -187500.02, -187500.02, -187500.02, 0.080, 0.862, 0.484, 22:56:55.569, 1541908615569
204, -335.48, 14905.24, 187500.00, 187500.00, -187500.02, -187500.02, -187500.02, -187500.02, 0.000, 0.000, 0.000, 22:56:55.569, 1541908615569
205, -321.35, 14678.97, 187500.00, 187500.00, -187500.02, -187500.02, -187500.02, -187500.02, 0.000, 0.000, 0.000, 22:56:55.569, 1541908615569
206, -23.63, 15001.26, 187500.00, 187500.00, -187500.02, -187500.02, -187500.02, -187500.02, 0.000, 0.000, 0.000, 22:56:55.569, 1541908615569
207, -82.39, 15193.24, 187500.00, 187500.00, -187500.02, -187500.02, -187500.02, -187500.02, 0.000, 0.000, 0.000, 22:56:55.569, 1541908615569
208, -312.52, 14964.25, 187500.00, 187500.00, -187500.02, -187500.02, -187500.02, -187500.02, 0.000, 0.000, 0.000, 22:56:55.569, 1541908615569
209, -347.66, 14697.10, 187500.00, 187500.00, -187500.02, -187500.02, -187500.02, -187500.02, 0.000, 0.000, 0.000, 22:56:55.570, 1541908615570
210, -48.68, 14925.56, 187500.00, 187500.00, -187500.02, -187500.02, -187500.02, -187500.02, 0.000, 0.000, 0.000, 22:56:55.570, 1541908615570
211, -41.84, 15202.23, 187500.00, 187500.00, -187500.02, -187500.02, -187500.02, -187500.02, 0.000, 0.000, 0.000, 22:56:55.571, 1541908615571
212, -279.31, 15008.88, 187500.00, 187500.00, -187500.02, -187500.02, -187500.02, -187500.02, 0.000, 0.000, 0.000, 22:56:55.571, 1541908615571
213, -359.17, 14726.22, 187500.00, 187500.00, -187500.02, -187500.02, -187500.02, -187500.02, 0.076, 0.868, 0.482, 22:56:55.571, 1541908615571
214, -109.46, 14841.25, 187500.00, 187500.00, -187500.02, -187500.02, -187500.02, -187500.02, 0.000, 0.000, 0.000, 22:56:55.572, 1541908615572
215, -10.26, 15194.40, 187500.00, 187500.00, -187500.02, -187500.02, -187500.02, -187500.02, 0.000, 0.000, 0.000, 22:56:55.572, 1541908615572
216, -234.05, 15058.39, 187500.00, 187500.00, -187500.02, -187500.02, -187500.02, -187500.02, 0.000, 0.000, 0.000, 22:56:55.572, 1541908615572
217, -364.00, 14762.16, 187500.00, 187500.00, -187500.02, -187500.02, -187500.02, -187500.02, 0.000, 0.000, 0.000, 22:56:55.572, 1541908615572
218, -179.48, 14751.77, 187500.00, 187500.00, -187500.02, -187500.02, -187500.02, -187500.02, 0.000, 0.000, 0.000, 22:56:55.572, 1541908615572
219, 12.16, 15165.90, 187500.00, 187500.00, -187500.02, -187500.02, -187500.02, -187500.02, 0.000, 0.000, 0.000, 22:56:55.572, 1541908615572
220, -199.74, 15098.36, 187500.00, 187500.00, -187500.02, -187500.02, -187500.02, -187500.02, 0.000, 0.000, 0.000, 22:56:55.572, 1541908615572
221, -359.91, 14810.00, 187500.00, 187500.00, -187500.02, -187500.02, -187500.02, -187500.02, 0.000, 0.000, 0.000, 22:56:55.572, 1541908615572
222, -231.39, 14706.31, 187500.00, 187500.00, -187500.02, -187500.02, -187500.02, -187500.02, 0.000, 0.000, 0.000, 22:56:55.572, 1541908615572
223, 9.19, 15112.82, 187500.00, 187500.00, -187500.02, -187500.02, -187500.02, -187500.02, 0.078, 0.874, 0.484, 22:56:55.573, 1541908615573
224, -169.23, 15124.29, 187500.00, 187500.00, -187500.02, -187500.02, -187500.02, -187500.02, 0.000, 0.000, 0.000, 22:56:55.573, 1541908615573
225, -349.56, 14853.81, 187500.00, 187500.00, -187500.02, -187500.02, -187500.02, -187500.02, 0.000, 0.000, 0.000, 22:56:55.573, 1541908615573
226, -276.51, 14677.03, 187500.00, 187500.00, -187500.02, -187500.02, -187500.02, -187500.02, 0.000, 0.000, 0.000, 22:56:55.573, 1541908615573
227, 16.96, 15061.32, 187500.00, 187500.00, -187500.02, -187500.02, -187500.02, -187500.02, 0.000, 0.000, 0.000, 22:56:55.573, 1541908615573
228, -107.13, 15167.58, 187500.00, 187500.00, -187500.02, -187500.02, -187500.02, -187500.02, 0.000, 0.000, 0.000, 22:56:55.573, 1541908615573
229, -308.28, 14922.67, 187500.00, 187500.00, -187500.02, -187500.02, -187500.02, -187500.02, 0.000, 0.000, 0.000, 22:56:55.573, 1541908615573
230, -307.31, 14680.85, 187500.00, 187500.00, -187500.02, -187500.02, -187500.02, -187500.02, 0.000, 0.000, 0.000, 22:56:55.573, 1541908615573
231, -0.16, 14989.21, 187500.00, 187500.00, -187500.02, -187500.02, -187500.02, -187500.02, 0.000, 0.000, 0.000, 22:56:55.573, 1541908615573
232, -61.20, 15189.87, 187500.00, 187500.00, -187500.02, -187500.02, -187500.02, -187500.02, 0.000, 0.000, 0.000, 22:56:55.573, 1541908615573
233, -289.05, 14968.96, 187500.00, 187500.00, -187500.02, -187500.02, -187500.02, -187500.02, 0.086, 0.872, 0.488, 22:56:55.573, 1541908615573
234, -339.68, 14695.56, 187500.00, 187500.00, -187500.02, -187500.02, -187500.02, -187500.02, 0.000, 0.000, 0.000, 22:56:55.573, 1541908615573
235, -50.56, 14899.85, 187500.00, 187500.00, -187500.02, -187500.02, -187500.02, -187500.02, 0.000, 0.000, 0.000, 22:56:55.573, 1541908615573
236, -19.16, 15197.73, 187500.00, 187500.00, -187500.02, -187500.02, -187500.02, -187500.02, 0.000, 0.000, 0.000, 22:56:55.574, 1541908615574
237, -245.78, 15025.87, 187500.00, 187500.00, -187500.02, -187500.02, -187500.02, -187500.02, 0.000, 0.000, 0.000, 22:56:55.574, 1541908615574
238, -335.54, 14741.60, 187500.00, 187500.00, -187500.02, -187500.02, -187500.02, -187500.02, 0.000, 0.000, 0.000, 22:56:55.574, 1541908615574
239, -99.22, 14825.08, 187500.00, 187500.00, -187500.02, -187500.02, -187500.02, -187500.02, 0.000, 0.000, 0.000, 22:56:55.576, 1541908615576
240, 11.20, 15191.61, 187500.00, 187500.00, -187500.02, -187500.02, -187500.02, -187500.02, 0.000, 0.000, 0.000, 22:56:55.576, 1541908615576
241, -215.05, 15072.63, 187500.00, 187500.00, -187500.02, -187500.02, -187500.02, -187500.02, 0.000, 0.000, 0.000, 22:56:55.970, 1541908615970
242, -338.72, 14783.17, 187500.00, 187500.00, -187500.02, -187500.02, -187500.02, -187500.02, 0.082, 0.872, 0.486, 22:56:55.970, 1541908615970
243, -160.73, 14756.44, 187500.00, 187500.00, -187500.02, -187500.02, -187500.02, -187500.02, 0.000, 0.000, 0.000, 22:56:55.970, 1541908615970
244, 25.24, 15161.25, 187500.00, 187500.00, -187500.02, -187500.02, -187500.02, -187500.02, 0.000, 0.000, 0.000, 22:56:55.970, 1541908615970
245, -171.53, 15114.76, 187500.00, 187500.00, -187500.02, -187500.02, -187500.02, -187500.02, 0.000, 0.000, 0.000, 22:56:55.970, 1541908615970
246, -335.61, 14823.70, 187500.00, 187500.00, -187500.02, -187500.02, -187500.02, -187500.02, 0.000, 0.000, 0.000, 22:56:55.970, 1541908615970
247, -222.69, 14700.72, 187500.00, 187500.00, -187500.02, -187500.02, -187500.02, -187500.02, 0.000, 0.000, 0.000, 22:56:55.970, 1541908615970
248, 25.79, 15108.73, 187500.00, 187500.00, -187500.02, -187500.02, -187500.02, -187500.02, 0.000, 0.000, 0.000, 22:56:55.971, 1541908615971
249, -135.25, 15144.00, 187500.00, 187500.00, -187500.02, -187500.02, -187500.02, -187500.02, 0.000, 0.000, 0.000, 22:56:55.971, 1541908615971
250, -318.71, 14879.22, 187500.00, 187500.00, -187500.02, -187500.02, -187500.02, -187500.02, 0.000, 0.000, 0.000, 22:56:55.971, 1541908615971
251, -266.32, 14674.63, 187500.00, 187500.00, -187500.02, -187500.02, -187500.02, -187500.02, 0.000, 0.000, 0.000, 22:56:55.971, 1541908615971
252, 30.42, 15040.69, 187500.00, 187500.00, -187500.02, -187500.02, -187500.02, -187500.02, 0.088, 0.864, 0.488, 22:56:55.971, 1541908615971
253, -80.33, 15176.12, 187500.00, 187500.00, -187500.02, -187500.02, -187500.02, -187500.02, 0.000, 0.000, 0.000, 22:56:55.971, 1541908615971
254, -284.92, 14940.31, 187500.00, 187500.00, -187500.02, -187500.02, -187500.02, -187500.02, 0.000, 0.000, 0.000, 22:56:55.971, 1541908615971
255, -283.04, 14697.70, 187500.00, 187500.00, -187500.02, -187500.02, -187500.02, -187500.02, 0.000, 0.000, 0.000, 22:56:55.971, 1541908615971
0, 23.67, 14986.46, 187500.00, 187500.00, -187500.02, -187500.02, -187500.02, -187500.02, 0.000, 0.000, 0.000, 22:56:55.971, 1541908615971
1, -11.00, 15216.58, 187500.00, 187500.00, -187500.02, -187500.02, -187500.02, -187500.02, 0.000, 0.000, 0.000, 22:56:55.971, 1541908615971
2, -246.45, 15003.56, 187500.00, 187500.00, -187500.02, -187500.02, -187500.02, -187500.02, 0.000, 0.000, 0.000, 22:56:55.972, 1541908615972
3, -300.74, 14719.54, 187500.00, 187500.00, -187500.02, -187500.02, -187500.02, -187500.02, 0.000, 0.000, 0.000, 22:56:55.972, 1541908615972
4, -33.39, 14888.41, 187500.00, 187500.00, -187500.02, -187500.02, -187500.02, -187500.02, 0.000, 0.000, 0.000, 22:56:55.972, 1541908615972
5, -1.54, 15196.91, 187500.00, 187500.00, -187500.02, -187500.02, -187500.02, -187500.02, 0.000, 0.000, 0.000, 22:56:55.972, 1541908615972
6, -238.52, 15027.99, 187500.00, 187500.00, -187500.02, -187500.02, -187500.02, -187500.02, 0.088, 0.870, 0.498, 22:56:55.972, 1541908615972
7, -348.51, 14729.75, 187500.00, 187500.00, -187500.02, -187500.02, -187500.02, -187500.02, 0.000, 0.000, 0.000, 22:56:55.972, 1541908615972
8, -115.04, 14800.70, 187500.00, 187500.00, -187500.02, -187500.02, -187500.02, -187500.02, 0.000, 0.000, 0.000, 22:56:55.972, 1541908615972
9, 23.65, 15182.04, 187500.00, 187500.00, -187500.02, -187500.02, -187500.02, -187500.02, 0.000, 0.000, 0.000, 22:56:55.972, 1541908615972
10, -206.22, 15067.51, 187500.00, 187500.00, -187500.02, -187500.02, -187500.02, -187500.02, 0.000, 0.000, 0.000, 22:56:55.972, 1541908615972
11, -335.54, 14785.54, 187500.00, 187500.00, -187500.02, -187500.02, -187500.02, -187500.02, 0.000, 0.000, 0.000, 22:56:55.972, 1541908615972
12, -150.70, 14750.21, 187500.00, 187500.00, -187500.02, -187500.02, -187500.02, -187500.02, 0.000, 0.000, 0.000, 22:56:55.973, 1541908615973
13, 55.16, 15156.05, 187500.00, 187500.00, -187500.02, -187500.02, -187500.02, -187500.02, 0.000, 0.000, 0.000, 22:56:55.973, 1541908615973
14, -158.38, 15118.90, 187500.00, 187500.00, -187500.02, -187500.02, -187500.02, -187500.02, 0.000, 0.000, 0.000, 22:56:55.973, 1541908615973
15, -326.42, 14840.26, 187500.00, 187500.00, -187500.02, -187500.02, -187500.02, -187500.02, 0.000, 0.000, 0.000, 22:56:55.973, 1541908615973
16, -231.27, 14691.67, 187500.00, 187500.00, -187500.02, -187500.02, -187500.02, -187500.02, 0.102, 0.862, 0.502, 22:56:55.973, 1541908615973
17, 23.02, 15087.65, 187500.00, 187500.00, -187500.02, -187500.02, -187500.02, -187500.02, 0.000, 0.000, 0.000, 22:56:55.973, 1541908615973
18, -132.70, 15145.18, 187500.00, 187500.00, -187500.02, -187500.02, -187500.02, -187500.02, 0.000, 0.000, 0.000, 22:56:55.973, 1541908615973
19, -315.58, 14885.14, 187500.00, 187500.00, -187500.02, -187500.02, -187500.02, -187500.02, 0.000, 0.000, 0.000, 22:56:55.973, 1541908615973
20, -266.28, 14680.40, 187500.00, 187500.00, -187500.02, -187500.02, -187500.02, -187500.02, 0.000, 0.000, 0.000, 22:56:55.973, 1541908615973
21, 33.42, 15035.75, 187500.00, 187500.00, -187500.02, -187500.02, -187500.02, -187500.02, 0.000, 0.000, 0.000, 22:56:55.973, 1541908615973
22, -71.55, 15178.64, 187500.00, 187500.00, -187500.02, -187500.02, -187500.02, -187500.02, 0.000, 0.000, 0.000, 22:56:55.973, 1541908615973
23, -298.69, 14931.14, 187500.00, 187500.00, -187500.02, -187500.02, -187500.02, -187500.02, 0.000, 0.000, 0.000, 22:56:55.973, 1541908615973
24, -319.41, 14674.50, 187500.00, 187500.00, -187500.02, -187500.02, -187500.02, -187500.02, 0.000, 0.000, 0.000, 22:56:55.974, 1541908615974
25, -27.11, 14936.22, 187500.00, 187500.00, -187500.02, -187500.02, -187500.02, -187500.02, 0.000, 0.000, 0.000, 22:56:55.974, 1541908615974
26, -47.41, 15182.85, 187500.00, 187500.00, -187500.02, -187500.02, -187500.02, -187500.02, 0.104, 0.856, 0.504, 22:56:55.974, 1541908615974
27, -267.60, 14990.96, 187500.00, 187500.00, -187500.02, -187500.02, -187500.02, -187500.02, 0.000, 0.000, 0.000, 22:56:55.974, 1541908615974
28, -323.18, 14721.04, 187500.00, 187500.00, -187500.02, -187500.02, -187500.02, -187500.02, 0.000, 0.000, 0.000, 22:56:55.974, 1541908615974
29, -60.55, 14865.90, 187500.00, 187500.00, -187500.02, -187500.02, -187500.02, -187500.02, 0.000, 0.000, 0.000, 22:56:55.974, 1541908615974
30, -4.67, 15183.58, 187500.00, 187500.00, -187500.02, -187500.02, -187500.02, -187500.02, 0.000, 0.000, 0.000, 22:56:55.974, 1541908615974
31, -240.55, 15028.89, 187500.00, 187500.00, -187500.02, -187500.02, -187500.02, -187500.02, 0.000, 0.000, 0.000, 22:56:55.974, 1541908615974
32, -347.39, 14739.83, 187500.00, 187500.00, -187500.02, -187500.02, -187500.02, -187500.02, 0.000, 0.000, 0.000, 22:56:55.974, 1541908615974
33, -118.17, 14789.72, 187500.00, 187500.00, -187500.02, -187500.02, -187500.02, -187500.02, 0.000, 0.000, 0.000, 22:56:55.974, 1541908615974
34, 37.24, 15180.70, 187500.00, 187500.00, -187500.02, -187500.02, -187500.02, -187500.02, 0.000, 0.000, 0.000, 22:56:55.974, 1541908615974
35, -181.79, 15088.50, 187500.00, 187500.00, -187500.02, -187500.02, -187500.02, -187500.02, 0.106, 0.858, 0.506, 22:56:55.974, 1541908615974
36, -326.83, 14797.75, 187500.00, 187500.00, -187500.02, -187500.02, -187500.02, -187500.02, 0.000, 0.000, 0.000, 22:56:55.974, 1541908615974
37, -184.07, 14726.20, 187500.00, 187500.00, -187500.02, -187500.02, -187500.02, -187500.02, 0.000, 0.000, 0.000, 22:56:55.975, 1541908615975
38, 34.42, 15131.86, 187500.00, 187500.00, -187500.02, -187500.02, -187500.02, -187500.02, 0.000, 0.000, 0.000, 22:56:55.975, 1541908615975
39, -149.35, 15115.72, 187500.00, 187500.00, -187500.02, -187500.02, -187500.02, -187500.02, 0.000, 0.000, 0.000, 22:56:55.975, 1541908615975
40, -324.68, 14838.45, 187500.00, 187500.00, -187500.02, -187500.02, -187500.02, -187500.02, 0.000, 0.000, 0.000, 22:56:55.975, 1541908615975
41, -230.65, 14689.63, 187500.00, 187500.00, -187500.02, -187500.02, -187500.02, -187500.02, 0.000, 0.000, 0.000, 22:56:55.975, 1541908615975
42, 58.99, 15089.82, 187500.00, 187500.00, -187500.02, -187500.02, -187500.02, -187500.02, 0.000, 0.000, 0.000, 22:56:55.975, 1541908615975
43, -84.67, 15165.57, 187500.00, 187500.00, -187500.02, -187500.02, -187500.02, -187500.02, 0.000, 0.000, 0.000, 22:56:55.975, 1541908615975
44, -299.04, 14902.44, 187500.00, 187500.00, -187500.02, -187500.02, -187500.02, -187500.02, 0.000, 0.000, 0.000, 22:56:55.975, 1541908615975
45, -276.31, 14673.56, 187500.00, 187500.00, -187500.02, -187500.02, -187500.02, -187500.02, 0.100, 0.860, 0.506, 22:56:55.975, 1541908615975
46, 34.85, 15017.26, 187500.00, 187500.00, -187500.02, -187500.02, -187500.02, -187500.02, 0.000, 0.000, 0.000, 22:56:55.975, 1541908615975
47, -41.22, 15186.87, 187500.00, 187500.00, -187500.02, -187500.02, -187500.02, -187500.02, 0.000, 0.000, 0.000, 22:56:55.975, 1541908615975
48, -264.35, 14947.75, 187500.00, 187500.00, -187500.02, -187500.02, -187500.02, -187500.02, 0.000, 0.000, 0.000, 22:56:55.976, 1541908615976
49, -297.43, 14684.94, 187500.00, 187500.00, -187500.02, -187500.02, -187500.02, -187500.02, 0.000, 0.000, 0.000, 22:56:55.976, 1541908615976
50, -5.90, 14925.40, 187500.00, 187500.00, -187500.02, -187500.02, -187500.02, -187500.02, 0.000, 0.000, 0.000, 22:56:55.976, 1541908615976
51, -11.87, 15182.06, 187500.00, 187500.00, -187500.02, -187500.02, -187500.02, -187500.02, 0.000, 0.000, 0.000, 22:56:55.976, 1541908615976
52, -237.24, 14998.09, 187500.00, 187500.00, -187500.02, -187500.02, -187500.02, -187500.02, 0.000, 0.000, 0.000, 22:56:55.976, 1541908615976
53, -303.13, 14722.94, 187500.00, 187500.00, -187500.02, -187500.02, -187500.02, -187500.02, 0.000, 0.000, 0.000, 22:56:55.976, 1541908615976
54, -49.40, 14844.91, 187500.00, 187500.00, -187500.02, -187500.02, -187500.02, -187500.02, 0.000, 0.000, 0.000, 22:56:55.976, 1541908615976
55, 31.99, 15187.09, 187500.00, 187500.00, -187500.02, -187500.02, -187500.02, -187500.02, 0.096, 0.864, 0.512, 22:56:55.976, 1541908615976
56, -191.22, 15046.61, 187500.00, 187500.00, -187500.02, -187500.02, -187500.02, -187500.02, 0.000, 0.000, 0.000, 22:56:55.976, 1541908615976
57, -292.85, 14765.14, 187500.00, 187500.00, -187500.02, -187500.02, -187500.02, -187500.02, 0.000, 0.000, 0.000, 22:56:55.977, 1541908615977
58, -92.45, 14778.26, 187500.00, 187500.00, -187500.02, -187500.02, -187500.02, -187500.02, 0.000, 0.000, 0.000, 22:56:55.977, 1541908615977
59, 62.76, 15174.20, 187500.00, 187500.00, -187500.02, -187500.02, -187500.02, -187500.02, 0.000, 0.000, 0.000, 22:56:55.977, 1541908615977
60, -142.54, 15098.13, 187500.00, 187500.00, -187500.02, -187500.02, -187500.02, -187500.02, 0.000, 0.000, 0.000, 22:56:55.977, 1541908615977
61, -297.37, 14803.18, 187500.00, 187500.00, -187500.02, -187500.02, -187500.02, -187500.02, 0.000, 0.000, 0.000, 22:56:55.977, 1541908615977
62, -152.62, 14716.21, 187500.00, 187500.00, -187500.02, -187500.02, -187500.02, -187500.02, 0.000, 0.000, 0.000, 22:56:55.977, 1541908615977
63, 86.26, 15128.29, 187500.00, 187500.00, -187500.02, -187500.02, -187500.02, -187500.02, 0.000, 0.000, 0.000, 22:56:55.977, 1541908615977
64, -109.59, 15119.14, 187500.00, 187500.00, -187500.02, -187500.02, -187500.02, -187500.02, 0.000, 0.000, 0.000, 22:56:55.977, 1541908615977
65, -291.89, 14837.33, 187500.00, 187500.00, -187500.02, -187500.02, -187500.02, -187500.02, 0.094, 0.862, 0.504, 22:56:55.978, 1541908615978
66, -202.15, 14680.78, 187500.00, 187500.00, -187500.02, -187500.02, -187500.02, -187500.02, 0.000, 0.000, 0.000, 22:56:55.978, 1541908615978
67, 87.53, 15072.90, 187500.00, 187500.00, -187500.02, -187500.02, -187500.02, -187500.02, 0.000, 0.000, 0.000, 22:56:55.978, 1541908615978
68, -53.69, 15159.09, 187500.00, 187500.00, -187500.02, -187500.02, -187500.02, -187500.02, 0.000, 0.000, 0.000, 22:56:55.978, 1541908615978
69, -257.25, 14904.79, 187500.00, 187500.00, -187500.02, -187500.02, -187500.02, -187500.02, 0.000, 0.000, 0.000, 22:56:55.978, 1541908615978
70, -237.64, 14679.02, 187500.00, 187500.00, -187500.02, -187500.02, -187500.02, -187500.02, 0.000, 0.000, 0.000, 22:56:55.978, 1541908615978
71, 62.67, 14992.05, 187500.00, 187500.00, -187500.02, -187500.02, -187500.02, -187500.02, 0.000, 0.000, 0.000, 22:56:55.978, 1541908615978
72, -9.90, 15170.22, 187500.00, 187500.00, -187500.02, -187500.02, -187500.02, -187500.02, 0.000, 0.000, 0.000, 22:56:55.978, 1541908615978
73, -233.04, 14948.35, 187500.00, 187500.00, -187500.02, -187500.02, -187500.02, -187500.02, 0.000, 0.000, 0.000, 22:56:55.978, 1541908615978
74, -273.52, 14681.03, 187500.00, 187500.00, -187500.02, -187500.02, -187500.02, -187500.02, 0.096, 0.862, 0.504, 22:56:55.978, 1541908615978
75, 12.99, 14904.95, 187500.00, 187500.00, -187500.02, -187500.02, -187500.02, -187500.02, 0.000, 0.000, 0.000, 22:56:55.978, 1541908615978
76, 32.66, 15183.52, 187500.00, 187500.00, -187500.02, -187500.02, -187500.02, -187500.02, 0.000, 0.000, 0.000, 22:56:55.979, 1541908615979
77, -188.07, 15004.14, 187500.00, 187500.00, -187500.02, -187500.02, -187500.02, -187500.02, 0.000, 0.000, 0.000, 22:56:55.979, 1541908615979
78, -268.36, 14718.29, 187500.00, 187500.00, -187500.02, -187500.02, -187500.02, -187500.02, 0.000, 0.000, 0.000, 22:56:55.979, 1541908615979
79, -24.23, 14831.41, 187500.00, 187500.00, -187500.02, -187500.02, -187500.02, -187500.02, 0.000, 0.000, 0.000, 22:56:55.979, 1541908615979
80, 70.70, 15181.13, 187500.00, 187500.00, -187500.02, -187500.02, -187500.02, -187500.02, 0.000, 0.000, 0.000, 22:56:55.979, 1541908615979
81, -151.01, 15052.76, 187500.00, 187500.00, -187500.02, -187500.02, -187500.02, -187500.02, 0.000, 0.000, 0.000, 22:56:55.979, 1541908615979
82, -275.40, 14763.17, 187500.00, 187500.00, -187500.02, -187500.02, -187500.02, -187500.02, 0.000, 0.000, 0.000, 22:56:55.979, 1541908615979
83, -81.32, 14759.84, 187500.00, 187500.00, -187500.02, -187500.02, -187500.02, -187500.02, 0.000, 0.000, 0.000, 22:56:55.979, 1541908615979
84, 101.90, 15159.78, 187500.00, 187500.00, -187500.02, -187500.02, -187500.02, -187500.02, 0.090, 0.860, 0.506, 22:56:55.979, 1541908615979
85, -110.40, 15091.16, 187500.00, 187500.00, -187500.02, -187500.02, -187500.02, -187500.02, 0.000, 0.000, 0.000, 22:56:55.979, 1541908615979
86, -256.80, 14814.96, 187500.00, 187500.00, -187500.02, -187500.02, -187500.02, -187500.02, 0.000, 0.000, 0.000, 22:56:55.979, 1541908615979
87, -130.47, 14704.27, 187500.00, 187500.00, -187500.02, -187500.02, -187500.02, -187500.02, 0.000, 0.000, 0.000, 22:56:55.979, 1541908615979
88, 109.17, 15106.63, 187500.00, 187500.00, -187500.02, -187500.02, -187500.02, -187500.02, 0.000, 0.000, 0.000, 22:56:55.980, 1541908615980
89, -68.84, 15125.36, 187500.00, 187500.00, -187500.02, -187500.02, -187500.02, -187500.02, 0.000, 0.000, 0.000, 22:56:55.980, 1541908615980
90, -255.61, 14857.41, 187500.00, 187500.00, -187500.02, -187500.02, -187500.02, -187500.02, 0.000, 0.000, 0.000, 22:56:55.981, 1541908615981
91, -191.04, 14676.51, 187500.00, 187500.00, -187500.02, -187500.02, -187500.02, -187500.02, 0.000, 0.000, 0.000, 22:56:55.981, 1541908615981
92, 89.83, 15040.96, 187500.00, 187500.00, -187500.02, -187500.02, -187500.02, -187500.02, 0.000, 0.000, 0.000, 22:56:55.981, 1541908615981
93, -27.36, 15159.15, 187500.00, 187500.00, -187500.02, -187500.02, -187500.02, -187500.02, 0.000, 0.000, 0.000, 22:56:55.981, 1541908615981
94, -234.58, 14912.23, 187500.00, 187500.00, -187500.02, -187500.02, -187500.02, -187500.02, 0.094, 0.856, 0.510, 22:56:55.981, 1541908615981
95, -226.29, 14675.06, 187500.00, 187500.00, -187500.02, -187500.02, -187500.02, -187500.02, 0.000, 0.000, 0.000, 22:56:55.981, 1541908615981
96, 71.17, 14970.10, 187500.00, 187500.00, -187500.02, -187500.02, -187500.02, -187500.02, 0.000, 0.000, 0.000, 22:56:55.981, 1541908615981
97, 20.92, 15176.61, 187500.00, 187500.00, -187500.02, -187500.02, -187500.02, -187500.02, 0.000, 0.000, 0.000, 22:56:55.982, 1541908615982
98, -206.02, 14956.20, 187500.00, 187500.00, -187500.02, -187500.02, -187500.02, -187500.02, 0.000, 0.000, 0.000, 22:56:55.982, 1541908615982
99, -259.86, 14679.98, 187500.00, 187500.00, -187500.02, -187500.02, -187500.02, -187500.02, 0.000, 0.000, 0.000, 22:56:55.982, 1541908615982
100, 16.21, 14880.92, 187500.00, 187500.00, -187500.02, -187500.02, -187500.02, -187500.02, 0.000, 0.000, 0.000, 22:56:55.982, 1541908615982
101, 50.47, 15185.98, 187500.00, 187500.00, -187500.02, -187500.02, -187500.02, -187500.02, 0.000, 0.000, 0.000, 22:56:55.982, 1541908615982
102, -180.13, 15012.26, 187500.00, 187500.00, -187500.02, -187500.02, -187500.02, -187500.02, 0.000, 0.000, 0.000, 22:56:55.982, 1541908615982
103, -278.23, 14716.43, 187500.00, 187500.00, -187500.02, -187500.02, -187500.02, -187500.02, 0.000, 0.000, 0.000, 22:56:55.982, 1541908615982
104, -32.21, 14797.93, 187500.00, 187500.00, -187500.02, -187500.02, -187500.02, -187500.02, 0.096, 0.848, 0.506, 22:56:55.982, 1541908615982
105, 84.62, 15162.75, 187500.00, 187500.00, -187500.02, -187500.02, -187500.02, -187500.02, 0.000, 0.000, 0.000, 22:56:56.449, 1541908616449
106, -138.29, 15048.29, 187500.00, 187500.00, -187500.02, -187500.02, -187500.02, -187500.02, 0.000, 0.000, 0.000, 22:56:56.450, 1541908616450
107, -270.66, 14756.51, 187500.00, 187500.00, -187500.02, -187500.02, -187500.02, -187500.02, 0.000, 0.000, 0.000, 22:56:56.450, 1541908616450
108, -89.00, 14726.16, 187500.00, 187500.00, -187500.02, -187500.02, -187500.02, -187500.02, 0.000, 0.000, 0.000, 22:56:56.450, 1541908616450
109, 103.69, 15131.46, 187500.00, 187500.00, -187500.02, -187500.02, -187500.02, -187500.02, 0.000, 0.000, 0.000, 22:56:56.450, 1541908616450
110, -97.86, 15088.97, 187500.00, 187500.00, -187500.02, -187500.02, -187500.02, -187500.02, 0.000, 0.000, 0.000, 22:56:56.450, 1541908616450
111, -252.55, 14814.02, 187500.00, 187500.00, -187500.02, -187500.02, -187500.02, -187500.02, 0.000, 0.000, 0.000, 22:56:56.450, 1541908616450
112, -138.07, 14686.50, 187500.00, 187500.00, -187500.02, -187500.02, -187500.02, -187500.02, 0.000, 0.000, 0.000, 22:56:56.450, 1541908616450
113, 127.87, 15101.98, 187500.00, 187500.00, -187500.02, -187500.02, -187500.02, -187500.02, 0.000, 0.000, 0.000, 22:56:56.450, 1541908616450
114, -34.69, 15141.81, 187500.00, 187500.00, -187500.02, -187500.02, -187500.02, -187500.02, 0.102, 0.852, 0.510, 22:56:56.450, 1541908616450
115, -232.61, 14871.17, 187500.00, 187500.00, -187500.02, -187500.02, -187500.02, -187500.02, 0.000, 0.000, 0.000, 22:56:56.450, 1541908616450
116, -185.47, 14669.54, 187500.00, 187500.00, -187500.02, -187500.02, -187500.02, -187500.02, 0.000, 0.000, 0.000, 22:56:56.450, 1541908616450
117, 111.83, 15035.26, 187500.00, 187500.00, -187500.02, -187500.02, -187500.02, -187500.02, 0.000, 0.000, 0.000, 22:56:56.451, 1541908616451
118, 6.66, 15174.46, 187500.00, 187500.00, -187500.02, -187500.02, -187500.02, -187500.02, 0.000, 0.000, 0.000, 22:56:56.451, 1541908616451
119, -208.68, 14932.84, 187500.00, 187500.00, -187500.02, -187500.02, -187500.02, -187500.02, 0.000, 0.000, 0.000, 22:56:56.451, 1541908616451
120, -208.72, 14683.20, 187500.00, 187500.00, -187500.02, -187500.02, -187500.02, -187500.02, 0.000, 0.000, 0.000, 22:56:56.452, 1541908616452
121, 100.38, 14962.68, 187500.00, 187500.00, -187500.02, -187500.02, -187500.02, -187500.02, 0.000, 0.000, 0.000, 22:56:56.452, 1541908616452
122, 53.82, 15188.99, 187500.00, 187500.00, -187500.02, -187500.02, -187500.02, -187500.02, 0.000, 0.000, 0.000, 22:56:56.452, 1541908616452
123, -189.14, 14976.23, 187500.00, 187500.00, -187500.02, -187500.02, -187500.02, -187500.02, 0.096, 0.852, 0.504, 22:56:56.452, 1541908616452
124, -255.01, 14689.19, 187500.00, 187500.00, -187500.02, -187500.02, -187500.02, -187500.02, 0.000, 0.000, 0.000, 22:56:56.452, 1541908616452
125, 28.34, 14870.37, 187500.00, 187500.00, -187500.02, -187500.02, -187500.02, -187500.02, 0.000, 0.000, 0.000, 22:56:56.452, 1541908616452
126, 75.53, 15191.68, 187500.00, 187500.00, -187500.02, -187500.02, -187500.02, -187500.02, 0.000, 0.000, 0.000, 22:56:56.453, 1541908616453
127, -158.18, 15028.28, 187500.00, 187500.00, -187500.02, -187500.02, -187500.02, -187500.02, 0.000, 0.000, 0.000, 22:56:56.453, 1541908616453
128, -255.86, 14745.49, 187500.00, 187500.00, -187500.02, -187500.02, -187500.02, -187500.02, 0.000, 0.000, 0.000, 22:56:56.453, 1541908616453
129, -29.10, 14798.89, 187500.00, 187500.00, -187500.02, -187500.02, -187500.02, -187500.02, 0.000, 0.000, 0.000, 22:56:56.454, 1541908616454
130, 106.60, 15170.78, 187500.00, 187500.00, -187500.02, -187500.02, -187500.02, -187500.02, 0.000, 0.000, 0.000, 22:56:56.454, 1541908616454
131, -111.49, 15071.31, 187500.00, 187500.00, -187500.02, -187500.02, -187500.02, -187500.02, 0.000, 0.000, 0.000, 22:56:56.454, 1541908616454
132, -248.15, 14788.74, 187500.00, 187500.00, -187500.02, -187500.02, -187500.02, -187500.02, 0.000, 0.000, 0.000, 22:56:56.454, 1541908616454
133, -79.35, 14738.14, 187500.00, 187500.00, -187500.02, -187500.02, -187500.02, -187500.02, 0.100, 0.852, 0.500, 22:56:56.455, 1541908616455
134, 127.47, 15143.93, 187500.00, 187500.00, -187500.02, -187500.02, -187500.02, -187500.02, 0.000, 0.000, 0.000, 22:56:56.455, 1541908616455
135, -69.65, 15115.99, 187500.00, 187500.00, -187500.02, -187500.02, -187500.02, -187500.02, 0.000, 0.000, 0.000, 22:56:56.455, 1541908616455
136, -237.13, 14841.31, 187500.00, 187500.00, -187500.02, -187500.02, -187500.02, -187500.02, 0.000, 0.000, 0.000, 22:56:56.455, 1541908616455
137, -140.75, 14696.27, 187500.00, 187500.00, -187500.02, -187500.02, -187500.02, -187500.02, 0.000, 0.000, 0.000, 22:56:56.455, 1541908616455
138, 139.56, 15110.20, 187500.00, 187500.00, -187500.02, -187500.02, -187500.02, -187500.02, 0.000, 0.000, 0.000, 22:56:56.456, 1541908616456
139, -15.24, 15166.87, 187500.00, 187500.00, -187500.02, -187500.02, -187500.02, -187500.02, 0.000, 0.000, 0.000, 22:56:56.456, 1541908616456
140, -219.36, 14898.13, 187500.00, 187500.00, -187500.02, -187500.02, -187500.02, -187500.02, 0.000, 0.000, 0.000, 22:56:56.456, 1541908616456
141, -178.23, 14686.79, 187500.00, 187500.00, -187500.02, -187500.02, -187500.02, -187500.02, 0.000, 0.000, 0.000, 22:56:56.456, 1541908616456
142, 119.78, 15034.01, 187500.00, 187500.00, -187500.02, -187500.02, -187500.02, -187500.02, 0.000, 0.000, 0.000, 22:56:56.456, 1541908616456
143, 18.40, 15178.20, 187500.00, 187500.00, -187500.02, -187500.02, -187500.02, -187500.02, 0.096, 0.860, 0.500, 22:56:56.456, 1541908616456
144, -199.49, 14947.48, 187500.00, 187500.00, -187500.02, -187500.02, -187500.02, -187500.02, 0.000, 0.000, 0.000, 22:56:56.456, 1541908616456
145, -218.98, 14690.37, 187500.00, 187500.00, -187500.02, -187500.02, -187500.02, -187500.02, 0.000, 0.000, 0.000, 22:56:56.456, 1541908616456
146, 70.41, 14945.72, 187500.00, 187500.00, -187500.02, -187500.02, -187500.02, -187500.02, 0.000, 0.000, 0.000, 22:56:56.456, 1541908616456
147, 40.88, 15187.47, 187500.00, 187500.00, -187500.02, -187500.02, -187500.02, -187500.02, 0.000, 0.000, 0.000, 22:56:56.456, 1541908616456
148, -188.51, 14990.78, 187500.00, 187500.00, -187500.02, -187500.02, -187500.02, -187500.02, 0.000, 0.000, 0.000, 22:56:56.457, 1541908616457
149, -259.17, 14708.30, 187500.00, 187500.00, -187500.02, -187500.02, -187500.02, -187500.02, 0.000, 0.000, 0.000, 22:56:56.457, 1541908616457
150, 1.63, 14861.36, 187500.00, 187500.00, -187500.02, -187500.02, -187500.02, -187500.02, 0.000, 0.000, 0.000, 22:56:56.457, 1541908616457
151, 64.57, 15190.31, 187500.00, 187500.00, -187500.02, -187500.02, -187500.02, -187500.02, 0.000, 0.000, 0.000, 22:56:56.457, 1541908616457
152, -148.93, 15044.20, 187500.00, 187500.00, -187500.02, -187500.02, -187500.02, -187500.02, 0.000, 0.000, 0.000, 22:56:56.457, 1541908616457
153, -261.22, 14751.01, 187500.00, 187500.00, -187500.02, -187500.02, -187500.02, -187500.02, 0.098, 0.858, 0.496, 22:56:56.457, 1541908616457
154, -48.48, 14785.43, 187500.00, 187500.00, -187500.02, -187500.02, -187500.02, -187500.02, 0.000, 0.000, 0.000, 22:56:56.457, 1541908616457
155, 110.84, 15184.08, 187500.00, 187500.00, -187500.02, -187500.02, -187500.02, -187500.02, 0.000, 0.000, 0.000, 22:56:56.457, 1541908616457
156, -108.12, 15097.15, 187500.00, 187500.00, -187500.02, -187500.02, -187500.02, -187500.02, 0.000, 0.000, 0.000, 22:56:56.457, 1541908616457
157, -256.71, 14809.35, 187500.00, 187500.00, -187500.02, -187500.02, -187500.02, -187500.02, 0.000, 0.000, 0.000, 22:56:56.457, 1541908616457
158, -109.26, 14729.31, 187500.00, 187500.00, -187500.02, -187500.02, -187500.02, -187500.02, 0.000, 0.000, 0.000, 22:56:56.457, 1541908616457
159, 118.20, 15136.40, 187500.00, 187500.00, -187500.02, -187500.02, -187500.02, -187500.02, 0.000, 0.000, 0.000, 22:56:56.458, 1541908616458
160, -63.93, 15133.83, 187500.00, 187500.00, -187500.02, -187500.02, -187500.02, -187500.02, 0.000, 0.000, 0.000, 22:56:56.458, 1541908616458
161, -236.91, 14864.76, 187500.00, 187500.00, -187500.02, -187500.02, -187500.02, -187500.02, 0.000, 0.000, 0.000, 22:56:56.458, 1541908616458
162, -156.66, 14688.85, 187500.00, 187500.00, -187500.02, -187500.02, -187500.02, -187500.02, 0.000, 0.000, 0.000, 22:56:56.458, 1541908616458
163, 116.03, 15082.80, 187500.00, 187500.00, -187500.02, -187500.02, -187500.02, -187500.02, 0.094, 0.862, 0.488, 22:56:56.458, 1541908616458
164, -26.82, 15169.88, 187500.00, 187500.00, -187500.02, -187500.02, -187500.02, -187500.02, 0.000, 0.000, 0.000, 22:56:56.458, 1541908616458
165, -236.30, 14906.78, 187500.00, 187500.00, -187500.02, -187500.02, -187500.02, -187500.02, 0.000, 0.000, 0.000, 22:56:56.458, 1541908616458
166, -220.21, 14676.27, 187500.00, 187500.00, -187500.02, -187500.02, -187500.02, -187500.02, 0.000, 0.000, 0.000, 22:56:56.458, 1541908616458
167, 90.70, 15009.71, 187500.00, 187500.00, -187500.02, -187500.02, -187500.02, -187500.02, 0.000, 0.000, 0.000, 22:56:56.458, 1541908616458
168, 10.91, 15186.76, 187500.00, 187500.00, -187500.02, -187500.02, -187500.02, -187500.02, 0.000, 0.000, 0.000, 22:56:56.458, 1541908616458
169, -226.89, 14953.50, 187500.00, 187500.00, -187500.02, -187500.02, -187500.02, -187500.02, 0.000, 0.000, 0.000, 22:56:56.458, 1541908616458
170, -262.28, 14688.34, 187500.00, 187500.00, -187500.02, -187500.02, -187500.02, -187500.02, 0.000, 0.000, 0.000, 22:56:56.459, 1541908616459
171, 39.85, 14927.57, 187500.00, 187500.00, -187500.02, -187500.02, -187500.02, -187500.02, 0.000, 0.000, 0.000, 22:56:56.459, 1541908616459
172, 45.66, 15194.89, 187500.00, 187500.00, -187500.02, -187500.02, -187500.02, -187500.02, 0.094, 0.866, 0.488, 22:56:56.459, 1541908616459
173, -187.96, 15005.62, 187500.00, 187500.00, -187500.02, -187500.02, -187500.02, -187500.02, 0.000, 0.000, 0.000, 22:56:56.459, 1541908616459
174, -269.63, 14717.89, 187500.00, 187500.00, -187500.02, -187500.02, -187500.02, -187500.02, 0.000, 0.000, 0.000, 22:56:56.459, 1541908616459
175, -7.11, 14842.97, 187500.00, 187500.00, -187500.02, -187500.02, -187500.02, -187500.02, 0.000, 0.000, 0.000, 22:56:56.459, 1541908616459
176, 86.19, 15197.42, 187500.00, 187500.00, -187500.02, -187500.02, -187500.02, -187500.02, 0.000, 0.000, 0.000, 22:56:56.459, 1541908616459
177, -144.82, 15055.53, 187500.00, 187500.00, -187500.02, -187500.02, -187500.02, -187500.02, 0.000, 0.000, 0.000, 22:56:56.459, 1541908616459
178, -261.18, 14760.22, 187500.00, 187500.00, -187500.02, -187500.02, -187500.02, -187500.02, 0.000, 0.000, 0.000, 22:56:56.459, 1541908616459
179, -74.23, 14758.99, 187500.00, 187500.00, -187500.02, -187500.02, -187500.02, -187500.02, 0.000, 0.000, 0.000, 22:56:56.459, 1541908616459
180, 97.21, 15166.51, 187500.00, 187500.00, -187500.02, -187500.02, -187500.02, -187500.02, 0.000, 0.000, 0.000, 22:56:56.464, 1541908616464
181, -121.06, 15092.86, 187500.00, 187500.00, -187500.02, -187500.02, -187500.02, -187500.02, 0.000, 0.000, 0.000, 22:56:56.464, 1541908616464
182, -286.88, 14799.29, 187500.00, 187500.00, -187500.02, -187500.02, -187500.02, -187500.02, 0.094, 0.862, 0.488, 22:56:56.465, 1541908616465
183, -147.77, 14711.67, 187500.00, 187500.00, -187500.02, -187500.02, -187500.02, -187500.02, 0.000, 0.000, 0.000, 22:56:56.465, 1541908616465
184, 84.69, 15125.89, 187500.00, 187500.00, -187500.02, -187500.02, -187500.02, -187500.02, 0.000, 0.000, 0.000, 22:56:56.465, 1541908616465
185, -101.61, 15131.64, 187500.00, 187500.00, -187500.02, -187500.02, -187500.02, -187500.02, 0.000, 0.000, 0.000, 22:56:56.465, 1541908616465
186, -281.12, 14862.70, 187500.00, 187500.00, -187500.02, -187500.02, -187500.02, -187500.02, 0.000, 0.000, 0.000, 22:56:56.465, 1541908616465
187, -212.32, 14678.79, 187500.00, 187500.00, -187500.02, -187500.02, -187500.02, -187500.02, 0.000, 0.000, 0.000, 22:56:56.465, 1541908616465
188, 76.55, 15062.17, 187500.00, 187500.00, -187500.02, -187500.02, -187500.02, -187500.02, 0.000, 0.000, 0.000, 22:56:56.465, 1541908616465
189, -53.71, 15155.02, 187500.00, 187500.00, -187500.02, -187500.02, -187500.02, -187500.02, 0.000, 0.000, 0.000, 22:56:56.465, 1541908616465
190, -260.15, 14902.98, 187500.00, 187500.00, -187500.02, -187500.02, -187500.02, -187500.02, 0.000, 0.000, 0.000, 22:56:56.465, 1541908616465
191, -238.31, 14677.97, 187500.00, 187500.00, -187500.02, -187500.02, -187500.02, -187500.02, 0.000, 0.000, 0.000, 22:56:56.465, 1541908616465
192, 63.77, 14989.08, 187500.00, 187500.00, -187500.02, -187500.02, -187500.02, -187500.02, 0.096, 0.866, 0.488, 22:56:56.465, 1541908616465
193, -5.12, 15171.96, 187500.00, 187500.00, -187500.02, -187500.02, -187500.02, -187500.02, 0.000, 0.000, 0.000, 22:56:56.465, 1541908616465
194, -231.85, 14952.27, 187500.00, 187500.00, -187500.02, -187500.02, -187500.02, -187500.02, 0.000, 0.000, 0.000, 22:56:56.466, 1541908616466
195, -280.74, 14680.13, 187500.00, 187500.00, -187500.02, -187500.02, -187500.02, -187500.02, 0.000, 0.000, 0.000, 22:56:56.466, 1541908616466
196, -2.03, 14884.05, 187500.00, 187500.00, -187500.02, -187500.02, -187500.02, -187500.02, 0.000, 0.000, 0.000, 22:56:56.466, 1541908616466
197, 21.52, 15176.50, 187500.00, 187500.00, -187500.02, -187500.02, -187500.02, -187500.02, 0.000, 0.000, 0.000, 22:56:56.466, 1541908616466
198, -198.51, 14999.67, 187500.00, 187500.00, -187500.02, -187500.02, -187500.02, -187500.02, 0.000, 0.000, 0.000, 22:56:56.466, 1541908616466
199, -283.35, 14716.46, 187500.00, 187500.00, -187500.02, -187500.02, -187500.02, -187500.02, 0.000, 0.000, 0.000, 22:56:56.466, 1541908616466
200, -47.01, 14815.09, 187500.00, 187500.00, -187500.02, -187500.02, -187500.02, -187500.02, 0.000, 0.000, 0.000, 22:56:56.466, 1541908616466
201, 65.20, 15175.96, 187500.00, 187500.00, -187500.02, -187500.02, -187500.02, -187500.02, 0.000, 0.000, 0.000, 22:56:56.466, 1541908616466
202, -148.59, 15057.34, 187500.00, 187500.00, -187500.02, -187500.02, -187500.02, -187500.02, 0.088, 0.866, 0.488, 22:56:56.466, 1541908616466
203, -287.47, 14761.43, 187500.00, 187500.00, -187500.02, -187500.02, -187500.02, -187500.02, 0.000, 0.000, 0.000, 22:56:56.466, 1541908616466
204, -100.54, 14748.26, 187500.00, 187500.00, -187500.02, -187500.02, -187500.02, -187500.02, 0.000, 0.000, 0.000, 22:56:56.466, 1541908616466
205, 88.83, 15153.59, 187500.00, 187500.00, -187500.02, -187500.02, -187500.02, -187500.02, 0.000, 0.000, 0.000, 22:56:56.467, 1541908616467
206, -128.72, 15093.86, 187500.00, 187500.00, -187500.02, -187500.02, -187500.02, -187500.02, 0.000, 0.000, 0.000, 22:56:56.467, 1541908616467
207, -294.31, 14805.71, 187500.00, 187500.00, -187500.02, -187500.02, -187500.02, -187500.02, 0.000, 0.000, 0.000, 22:56:56.467, 1541908616467
208, -162.14, 14692.29, 187500.00, 187500.00, -187500.02, -187500.02, -187500.02, -187500.02, 0.000, 0.000, 0.000, 22:56:56.467, 1541908616467
209, 86.08, 15096.64, 187500.00, 187500.00, -187500.02, -187500.02, -187500.02, -187500.02, 0.000, 0.000, 0.000, 22:56:56.467, 1541908616467
210, -90.14, 15122.70, 187500.00, 187500.00, -187500.02, -187500.02, -187500.02, -187500.02, 0.000, 0.000, 0.000, 22:56:56.467, 1541908616467
211, -274.68, 14856.53, 187500.00, 187500.00, -187500.02, -187500.02, -187500.02, -187500.02, 0.090, 0.860, 0.496, 22:56:56.467, 1541908616467
212, -215.09, 14660.80, 187500.00, 187500.00, -187500.02, -187500.02, -187500.02, -187500.02, 0.000, 0.000, 0.000, 22:56:56.467, 1541908616467
213, 81.09, 15034.16, 187500.00, 187500.00, -187500.02, -187500.02, -187500.02, -187500.02, 0.000, 0.000, 0.000, 22:56:56.467, 1541908616467
214, -32.52, 15156.74, 187500.00, 187500.00, -187500.02, -187500.02, -187500.02, -187500.02, 0.000, 0.000, 0.000, 22:56:56.467, 1541908616467
215, -252.22, 14914.51, 187500.00, 187500.00, -187500.02, -187500.02, -187500.02, -187500.02, 0.000, 0.000, 0.000, 22:56:56.467, 1541908616467
216, -248.82, 14680.31, 187500.00, 187500.00, -187500.02, -187500.02, -187500.02, -187500.02, 0.000, 0.000, 0.000, 22:56:56.468, 1541908616468
217, 65.83, 14985.68, 187500.00, 187500.00, -187500.02, -187500.02, -187500.02, -187500.02, 0.000, 0.000, 0.000, 22:56:56.468, 1541908616468
218, 4.43, 15189.73, 187500.00, 187500.00, -187500.02, -187500.02, -187500.02, -187500.02, 0.000, 0.000, 0.000, 22:56:56.468, 1541908616468
219, -241.09, 14950.86, 187500.00, 187500.00, -187500.02, -187500.02, -187500.02, -187500.02, 0.000, 0.000, 0.000, 22:56:56.468, 1541908616468
220, -302.15, 14661.80, 187500.00, 187500.00, -187500.02, -187500.02, -187500.02, -187500.02, 0.000, 0.000, 0.000, 22:56:56.468, 1541908616468
221, -20.12, 14855.71, 187500.00, 187500.00, -187500.02, -187500.02, -187500.02, -187500.02, 0.096, 0.860, 0.494, 22:56:56.468, 1541908616468
222, 10.06, 15155.15, 187500.00, 187500.00, -187500.02, -187500.02, -187500.02, -187500.02, 0.000, 0.000, 0.000, 22:56:56.468, 1541908616468
223, -228.26, 14981.21, 187500.00, 187500.00, -187500.02, -187500.02, -187500.02, -187500.02, 0.000, 0.000, 0.000, 22:56:56.469, 1541908616469
224, -329.55, 14691.64, 187500.00, 187500.00, -187500.02, -187500.02, -187500.02, -187500.02, 0.000, 0.000, 0.000, 22:56:56.469, 1541908616469
225, -88.56, 14768.49, 187500.00, 187500.00, -187500.02, -187500.02, -187500.02, -187500.02, 0.000, 0.000, 0.000, 22:56:56.935, 1541908616935
226, 47.97, 15148.02, 187500.00, 187500.00, -187500.02, -187500.02, -187500.02, -187500.02, 0.000, 0.000, 0.000, 22:56:56.935, 1541908616935
227, -172.13, 15047.51, 187500.00, 187500.00, -187500.02, -187500.02, -187500.02, -187500.02, 0.000, 0.000, 0.000, 22:56:56.936, 1541908616936
228, -301.79, 14763.15, 187500.00, 187500.00, -187500.02, -187500.02, -187500.02, -187500.02, 0.000, 0.000, 0.000, 22:56:56.936, 1541908616936
229, -136.30, 14710.53, 187500.00, 187500.00, -187500.02, -187500.02, -187500.02, -187500.02, 0.000, 0.000, 0.000, 22:56:56.936, 1541908616936
230, 65.20, 15120.82, 187500.00, 187500.00, -187500.02, -187500.02, -187500.02, -187500.02, 0.000, 0.000, 0.000, 22:56:56.937, 1541908616937
231, -125.91, 15090.20, 187500.00, 187500.00, -187500.02, -187500.02, -187500.02, -187500.02, 0.096, 0.866, 0.490, 22:56:56.937, 1541908616937
232, -293.97, 14809.51, 187500.00, 187500.00, -187500.02, -187500.02, -187500.02, -187500.02, 0.000, 0.000, 0.000, 22:56:56.937, 1541908616937
233, -191.02, 14665.56, 187500.00, 187500.00, -187500.02, -187500.02, -187500.02, -187500.02, 0.000, 0.000, 0.000, 22:56:56.938, 1541908616938
234, 72.96, 15073.61, 187500.00, 187500.00, -187500.02, -187500.02, -187500.02, -187500.02, 0.000, 0.000, 0.000, 22:56:56.938, 1541908616938
235, -83.84, 15133.54, 187500.00, 187500.00, -187500.02, -187500.02, -187500.02, -187500.02, 0.000, 0.000, 0.000, 22:56:56.938, 1541908616938
236, -281.94, 14866.08, 187500.00, 187500.00, -187500.02, -187500.02, -187500.02, -187500.02, 0.000, 0.000, 0.000, 22:56:56.939, 1541908616939
237, -229.31, 14665.94, 187500.00, 187500.00, -187500.02, -187500.02, -187500.02, -187500.02, 0.000, 0.000, 0.000, 22:56:56.939, 1541908616939
238, 70.86, 15020.44, 187500.00, 187500.00, -187500.02, -187500.02, -187500.02, -187500.02, 0.000, 0.000, 0.000, 22:56:56.939, 1541908616939
239, -42.16, 15148.13, 187500.00, 187500.00, -187500.02, -187500.02, -187500.02, -187500.02, 0.000, 0.000, 0.000, 22:56:56.939, 1541908616939
240, -262.90, 14909.22, 187500.00, 187500.00, -187500.02, -187500.02, -187500.02, -187500.02, 0.000, 0.000, 0.000, 22:56:56.940, 1541908616940
241, -270.55, 14658.16, 187500.00, 187500.00, -187500.02, -187500.02, -187500.02, -187500.02, 0.104, 0.864, 0.490, 22:56:56.940, 1541908616940
242, 30.02, 14926.23, 187500.00, 187500.00, -187500.02, -187500.02, -187500.02, -187500.02, 0.000, 0.000, 0.000, 22:56:56.940, 1541908616940
243, 8.18, 15170.08, 187500.00, 187500.00, -187500.02, -187500.02, -187500.02, -187500.02, 0.000, 0.000, 0.000, 22:56:56.941, 1541908616941
244, -211.13, 14977.03, 187500.00, 187500.00, -187500.02, -187500.02, -187500.02, -187500.02, 0.000, 0.000, 0.000, 22:56:56.941, 1541908616941
245, -283.31, 14689.52, 187500.00, 187500.00, -187500.02, -187500.02, -187500.02, -187500.02, 0.000, 0.000, 0.000, 22:56:56.941, 1541908616941
246, -28.03, 14845.00, 187500.00, 187500.00, -187500.02, -187500.02, -187500.02, -187500.02, 0.000, 0.000, 0.000, 22:56:56.942, 1541908616942
247, 33.62, 15173.24, 187500.00, 187500.00, -187500.02, -187500.02, -187500.02, -187500.02, 0.000, 0.000, 0.000, 22:56:56.942, 1541908616942
248, -191.60, 15016.91, 187500.00, 187500.00, -187500.02, -187500.02, -187500.02, -187500.02, 0.000, 0.000, 0.000, 22:56:56.942, 1541908616942
249, -300.90, 14718.49, 187500.00, 187500.00, -187500.02, -187500.02, -187500.02, -187500.02, 0.000, 0.000, 0.000, 22:56:56.944, 1541908616944
250, -78.59, 14765.96, 187500.00, 187500.00, -187500.02, -187500.02, -187500.02, -187500.02, 0.000, 0.000, 0.000, 22:56:56.944, 1541908616944
251, 61.44, 15154.42, 187500.00, 187500.00, -187500.02, -187500.02, -187500.02, -187500.02, 0.114, 0.860, 0.488, 22:56:56.945, 1541908616945
252, -163.48, 15056.00, 187500.00, 187500.00, -187500.02, -187500.02, -187500.02, -187500.02, 0.000, 0.000, 0.000, 22:56:56.945, 1541908616945
253, -301.61, 14772.85, 187500.00, 187500.00, -187500.02, -187500.02, -187500.02, -187500.02, 0.000, 0.000, 0.000, 22:56:56.946, 1541908616946
254, -136.37, 14714.11, 187500.00, 187500.00, -187500.02, -187500.02, -187500.02, -187500.02, 0.000, 0.000, 0.000, 22:56:56.946, 1541908616946
255, 77.65, 15118.50, 187500.00, 187500.00, -187500.02, -187500.02, -187500.02, -187500.02, 0.000, 0.000, 0.000, 22:56:56.947, 1541908616947
0, -129.39, 15083.83, 187500.00, 187500.00, -187500.02, -187500.02, -187500.02, -187500.02, 0.000, 0.000, 0.000, 22:56:56.949, 1541908616949
1, -291.73, 14816.66, 187500.00, 187500.00, -187500.02, -187500.02, -187500.02, -187500.02, 0.000, 0.000, 0.000, 22:56:56.950, 1541908616950
2, -208.45, 14655.73, 187500.00, 187500.00, -187500.02, -187500.02, -187500.02, -187500.02, 0.000, 0.000, 0.000, 22:56:56.951, 1541908616951
3, 55.63, 15047.44, 187500.00, 187500.00, -187500.02, -187500.02, -187500.02, -187500.02, 0.000, 0.000, 0.000, 22:56:56.951, 1541908616951
4, -103.69, 15103.56, 187500.00, 187500.00, -187500.02, -187500.02, -187500.02, -187500.02, 0.114, 0.868, 0.488, 22:56:56.952, 1541908616952
5, -309.50, 14838.85, 187500.00, 187500.00, -187500.02, -187500.02, -187500.02, -187500.02, 0.000, 0.000, 0.000, 22:56:56.953, 1541908616953
6, -272.09, 14629.57, 187500.00, 187500.00, -187500.02, -187500.02, -187500.02, -187500.02, 0.000, 0.000, 0.000, 22:56:56.953, 1541908616953
7, 26.06, 14965.07, 187500.00, 187500.00, -187500.02, -187500.02, -187500.02, -187500.02, 0.000, 0.000, 0.000, 22:56:56.954, 1541908616954
8, -60.62, 15124.71, 187500.00, 187500.00, -187500.02, -187500.02, -187500.02, -187500.02, 0.000, 0.000, 0.000, 22:56:56.955, 1541908616955
9, -281.39, 14896.05, 187500.00, 187500.00, -187500.02, -187500.02, -187500.02, -187500.02, 0.000, 0.000, 0.000, 22:56:56.955, 1541908616955
10, -307.83, 14642.47, 187500.00, 187500.00, -187500.02, -187500.02, -187500.02, -187500.02, 0.000, 0.000, 0.000, 22:56:56.956, 1541908616956
11, -6.73, 14885.77, 187500.00, 187500.00, -187500.02, -187500.02, -187500.02, -187500.02, 0.000, 0.000, 0.000, 22:56:56.956, 1541908616956
12, 5.70, 15143.93, 187500.00, 187500.00, -187500.02, -187500.02, -187500.02, -187500.02, 0.000, 0.000, 0.000, 22:56:56.956, 1541908616956
13, -208.01, 14955.51, 187500.00, 187500.00, -187500.02, -187500.02, -187500.02, -187500.02, 0.000, 0.000, 0.000, 22:56:56.956, 1541908616956
14, -283.80, 14661.67, 187500.00, 187500.00, -187500.02, -187500.02, -187500.02, -187500.02, 0.108, 0.866, 0.492, 22:56:56.957, 1541908616957
15, -12.58, 14802.51, 187500.00, 187500.00, -187500.02, -187500.02, -187500.02, -187500.02, 0.000, 0.000, 0.000, 22:56:56.957, 1541908616957
16, 94.39, 15165.48, 187500.00, 187500.00, -187500.02, -187500.02, -187500.02, -187500.02, 0.000, 0.000, 0.000, 22:56:56.957, 1541908616957
17, -112.70, 15034.77, 187500.00, 187500.00, -187500.02, -187500.02, -187500.02, -187500.02, 0.000, 0.000, 0.000, 22:56:56.957, 1541908616957
18, -219.70, 14746.03, 187500.00, 187500.00, -187500.02, -187500.02, -187500.02, -187500.02, 0.000, 0.000, 0.000, 22:56:56.958, 1541908616958
19, 3.91, 14775.46, 187500.00, 187500.00, -187500.02, -187500.02, -187500.02, -187500.02, 0.000, 0.000, 0.000, 22:56:56.958, 1541908616958
20, 182.70, 15189.08, 187500.00, 187500.00, -187500.02, -187500.02, -187500.02, -187500.02, 0.000, 0.000, 0.000, 22:56:56.958, 1541908616958
21, -18.53, 15122.25, 187500.00, 187500.00, -187500.02, -187500.02, -187500.02, -187500.02, 0.000, 0.000, 0.000, 22:56:56.958, 1541908616958
22, -166.10, 14833.20, 187500.00, 187500.00, -187500.02, -187500.02, -187500.02, -187500.02, 0.000, 0.000, 0.000, 22:56:56.958, 1541908616958
23, -13.57, 14760.13, 187500.00, 187500.00, -187500.02, -187500.02, -187500.02, -187500.02, 0.000, 0.000, 0.000, 22:56:56.959, 1541908616959
24, 234.34, 15190.87, 187500.00, 187500.00, -187500.02, -187500.02, -187500.02, -187500.02, 0.100, 0.858, 0.494, 22:56:56.959, 1541908616959
25, 43.90, 15184.08, 187500.00, 187500.00, -187500.02, -187500.02, -187500.02, -187500.02, 0.000, 0.000, 0.000, 22:56:56.959, 1541908616959
26, -128.46, 14914.22, 187500.00, 187500.00, -187500.02, -187500.02, -187500.02, -187500.02, 0.000, 0.000, 0.000, 22:56:56.959, 1541908616959
27, -33.84, 14753.49, 187500.00, 187500.00, -187500.02, -187500.02, -187500.02, -187500.02, 0.000, 0.000, 0.000, 22:56:56.959, 1541908616959
28, 242.67, 15138.37, 187500.00, 187500.00, -187500.02, -187500.02, -187500.02, -187500.02, 0.000, 0.000, 0.000, 22:56:56.960, 1541908616960
29, 110.95, 15237.63, 187500.00, 187500.00, -187500.02, -187500.02, -187500.02, -187500.02, 0.000, 0.000, 0.000, 22:56:56.960, 1541908616960
30, -88.11, 14974.62, 187500.00, 187500.00, -187500.02, -187500.02, -187500.02, -187500.02, 0.000, 0.000, 0.000, 22:56:56.960, 1541908616960
31, -65.49, 14743.84, 187500.00, 187500.00, -187500.02, -187500.02, -187500.02, -187500.02, 0.000, 0.000, 0.000, 22:56:56.960, 1541908616960
32, 241.62, 15076.05, 187500.00, 187500.00, -187500.02, -187500.02, -187500.02, -187500.02, 0.000, 0.000, 0.000, 22:56:56.960, 1541908616960
33, 169.52, 15256.36, 187500.00, 187500.00, -187500.02, -187500.02, -187500.02, -187500.02, 0.000, 0.000, 0.000, 22:56:56.960, 1541908616960
34, -64.08, 15027.35, 187500.00, 187500.00, -187500.02, -187500.02, -187500.02, -187500.02, 0.092, 0.852, 0.504, 22:56:56.960, 1541908616960
35, -96.43, 14762.01, 187500.00, 187500.00, -187500.02, -187500.02, -187500.02, -187500.02, 0.000, 0.000, 0.000, 22:56:56.961, 1541908616961
36, 198.57, 14992.28, 187500.00, 187500.00, -187500.02, -187500.02, -187500.02, -187500.02, 0.000, 0.000, 0.000, 22:56:56.961, 1541908616961
37, 200.81, 15255.53, 187500.00, 187500.00, -187500.02, -187500.02, -187500.02, -187500.02, 0.000, 0.000, 0.000, 22:56:56.961, 1541908616961
38, -28.14, 15069.75, 187500.00, 187500.00, -187500.02, -187500.02, -187500.02, -187500.02, 0.000, 0.000, 0.000, 22:56:56.961, 1541908616961
39, -98.26, 14795.18, 187500.00, 187500.00, -187500.02, -187500.02, -187500.02, -187500.02, 0.000, 0.000, 0.000, 22:56:56.961, 1541908616961
40, 160.37, 14918.47, 187500.00, 187500.00, -187500.02, -187500.02, -187500.02, -187500.02, 0.000, 0.000, 0.000, 22:56:56.962, 1541908616962
41, 245.58, 15266.60, 187500.00, 187500.00, -187500.02, -187500.02, -187500.02, -187500.02, 0.000, 0.000, 0.000, 22:56:56.962, 1541908616962
42, 13.05, 15128.75, 187500.00, 187500.00, -187500.02, -187500.02, -187500.02, -187500.02, 0.000, 0.000, 0.000, 22:56:56.962, 1541908616962
43, -109.32, 14836.71, 187500.00, 187500.00, -187500.02, -187500.02, -187500.02, -187500.02, 0.086, 0.856, 0.502, 22:56:56.962, 1541908616962
44, 92.34, 14839.88, 187500.00, 187500.00, -187500.02, -187500.02, -187500.02, -187500.02, 0.000, 0.000, 0.000, 22:56:56.962, 1541908616962
45, 259.97, 15241.86, 187500.00, 187500.00, -187500.02, -187500.02, -187500.02, -187500.02, 0.000, 0.000, 0.000, 22:56:56.962, 1541908616962
46, 44.95, 15180.03, 187500.00, 187500.00, -187500.02, -187500.02, -187500.02, -187500.02, 0.000, 0.000, 0.000, 22:56:56.963, 1541908616963
47, -103.04, 14898.76, 187500.00, 187500.00, -187500.02, -187500.02, -187500.02, -187500.02, 0.000, 0.000, 0.000, 22:56:56.963, 1541908616963
48, 36.28, 14800.88, 187500.00, 187500.00, -187500.02, -187500.02, -187500.02, -187500.02, 0.000, 0.000, 0.000, 22:56:56.963, 1541908616963
49, 285.07, 15214.70, 187500.00, 187500.00, -187500.02, -187500.02, -187500.02, -187500.02, 0.000, 0.000, 0.000, 22:56:56.964, 1541908616964
50, 109.97, 15227.91, 187500.00, 187500.00, -187500.02, -187500.02, -187500.02, -187500.02, 0.000, 0.000, 0.000, 22:56:56.964, 1541908616964
51, -80.65, 14950.72, 187500.00, 187500.00, -187500.02, -187500.02, -187500.02, -187500.02, 0.000, 0.000, 0.000, 22:56:56.964, 1541908616964
52, -16.07, 14766.59, 187500.00, 187500.00, -187500.02, -187500.02, -187500.02, -187500.02, 0.000, 0.000, 0.000, 22:56:56.964, 1541908616964
53, 289.59, 15158.48, 187500.00, 187500.00, -187500.02, -187500.02, -187500.02, -187500.02, 0.094, 0.856, 0.498, 22:56:56.964, 1541908616964
54, 159.57, 15256.63, 187500.00, 187500.00, -187500.02, -187500.02, -187500.02, -187500.02, 0.000, 0.000, 0.000, 22:56:56.964, 1541908616964
55, -49.55, 15007.34, 187500.00, 187500.00, -187500.02, -187500.02, -187500.02, -187500.02, 0.000, 0.000, 0.000, 22:56:56.965, 1541908616965
56, -35.54, 14778.19, 187500.00, 187500.00, -187500.02, -187500.02, -187500.02, -187500.02, 0.000, 0.000, 0.000, 22:56:56.965, 1541908616965
57, 275.04, 15095.90, 187500.00, 187500.00, -187500.02, -187500.02, -187500.02, -187500.02, 0.000, 0.000, 0.000, 22:56:56.965, 1541908616965
58, 214.55, 15296.88, 187500.00, 187500.00, -187500.02, -187500.02, -187500.02, -187500.02, 0.000, 0.000, 0.000, 22:56:56.965, 1541908616965
59, -15.33, 15076.47, 187500.00, 187500.00, -187500.02, -187500.02, -187500.02, -187500.02, 0.000, 0.000, 0.000, 22:56:56.965, 1541908616965
60, -65.62, 14800.99, 187500.00, 187500.00, -187500.02, -187500.02, -187500.02, -187500.02, 0.000, 0.000, 0.000, 22:56:56.965, 1541908616965
61, 212.92, 15000.84, 187500.00, 187500.00, -187500.02, -187500.02, -187500.02, -187500.02, 0.000, 0.000, 0.000, 22:56:56.965, 1541908616965
62, 239.90, 15292.15, 187500.00, 187500.00, -187500.02, -187500.02, -187500.02, -187500.02, 0.000, 0.000, 0.000, 22:56:56.968, 1541908616968
63, 9.32, 15118.00, 187500.00, 187500.00, -187500.02, -187500.02, -187500.02, -187500.02, 0.098, 0.858, 0.500, 22:56:56.969, 1541908616969
64, -91.80, 14826.87, 187500.00, 187500.00, -187500.02, -187500.02, -187500.02, -187500.02, 0.000, 0.000, 0.000, 22:56:56.969, 1541908616969
65, 144.64, 14910.47, 187500.00, 187500.00, -187500.02, -187500.02, -187500.02, -187500.02, 0.000, 0.000, 0.000, 22:56:56.970, 1541908616970
66, 265.27, 15287.03, 187500.00, 187500.00, -187500.02, -187500.02, -187500.02, -187500.02, 0.000, 0.000, 0.000, 22:56:56.971, 1541908616971
67, 37.10, 15165.97, 187500.00, 187500.00, -187500.02, -187500.02, -187500.02, -187500.02, 0.000, 0.000, 0.000, 22:56:56.971, 1541908616971
68, -80.94, 14878.35, 187500.00, 187500.00, -187500.02, -187500.02, -187500.02, -187500.02, 0.000, 0.000, 0.000, 22:56:56.971, 1541908616971
69, 104.87, 14858.70, 187500.00, 187500.00, -187500.02, -187500.02, -187500.02, -187500.02, 0.000, 0.000, 0.000, 22:56:56.972, 1541908616972
70, 289.43, 15262.58, 187500.00, 187500.00, -187500.02, -187500.02, -187500.02, -187500.02, 0.000, 0.000, 0.000, 22:56:56.972, 1541908616972
71, 82.34, 15210.14, 187500.00, 187500.00, -187500.02, -187500.02, -187500.02, -187500.02, 0.000, 0.000, 0.000, 22:56:56.972, 1541908616972
72, -60.62, 14944.15, 187500.00, 187500.00, -187500.02, -187500.02, -187500.02, -187500.02, 0.000, 0.000, 0.000, 22:56:56.973, 1541908616973
73, 51.83, 14826.81, 187500.00, 187500.00, -187500.02, -187500.02, -187500.02, -187500.02, 0.106, 0.866, 0.502, 22:56:56.973, 1541908616973
74, 267.86, 15197.35, 187500.00, 187500.00, -187500.02, -187500.02, -187500.02, -187500.02, 0.000, 0.000, 0.000, 22:56:56.975, 1541908616975
75, 71.97, 15201.49, 187500.00, 187500.00, -187500.02, -187500.02, -187500.02, -187500.02, 0.000, 0.000, 0.000, 22:56:56.976, 1541908616976
76, -136.73, 14912.84, 187500.00, 187500.00, -187500.02, -187500.02, -187500.02, -187500.02, 0.000, 0.000, 0.000, 22:56:56.976, 1541908616976
77, -102.97, 14694.39, 187500.00, 187500.00, -187500.02, -187500.02, -187500.02, -187500.02, 0.000, 0.000, 0.000, 22:56:56.976, 1541908616976
78, 172.80, 15050.37, 187500.00, 187500.00, -187500.02, -187500.02, -187500.02, -187500.02, 0.000, 0.000, 0.000, 22:56:56.976, 1541908616976
79, 54.94, 15161.39, 187500.00, 187500.00, -187500.02, -187500.02, -187500.02, -187500.02, 0.000, 0.000, 0.000, 22:56:56.976, 1541908616976
80, -196.65, 14886.02, 187500.00, 187500.00, -187500.02, -187500.02, -187500.02, -187500.02, 0.000, 0.000, 0.000, 22:56:56.977, 1541908616977
81, -236.55, 14623.25, 187500.00, 187500.00, -187500.02, -187500.02, -187500.02, -187500.02, 0.000, 0.000, 0.000, 22:56:56.977, 1541908616977
82, 41.26, 14896.07, 187500.00, 187500.00, -187500.02, -187500.02, -187500.02, -187500.02, 0.000, 0.000, 0.000, 22:56:56.977, 1541908616977
83, -17.99, 15101.69, 187500.00, 187500.00, -187500.02, -187500.02, -187500.02, -187500.02, 0.094, 0.862, 0.498, 22:56:56.977, 1541908616977
84, -239.54, 14893.21, 187500.00, 187500.00, -187500.02, -187500.02, -187500.02, -187500.02, 0.000, 0.000, 0.000, 22:56:56.977, 1541908616977
85, -298.26, 14612.23, 187500.00, 187500.00, -187500.02, -187500.02, -187500.02, -187500.02, 0.000, 0.000, 0.000, 22:56:56.977, 1541908616977
86, -17.68, 14787.15, 187500.00, 187500.00, -187500.02, -187500.02, -187500.02, -187500.02, 0.000, 0.000, 0.000, 22:56:56.977, 1541908616977
87, 36.17, 15111.66, 187500.00, 187500.00, -187500.02, -187500.02, -187500.02, -187500.02, 0.000, 0.000, 0.000, 22:56:56.977, 1541908616977
88, -191.20, 14949.14, 187500.00, 187500.00, -187500.02, -187500.02, -187500.02, -187500.02, 0.000, 0.000, 0.000, 22:56:56.977, 1541908616977
89, -278.86, 14670.88, 187500.00, 187500.00, -187500.02, -187500.02, -187500.02, -187500.02, 0.000, 0.000, 0.000, 22:56:56.977, 1541908616977
90, -37.01, 14742.90, 187500.00, 187500.00, -187500.02, -187500.02, -187500.02, -187500.02, 0.000, 0.000, 0.000, 22:56:57.195, 1541908617195
91, 93.39, 15126.34, 187500.00, 187500.00, -187500.02, -187500.02, -187500.02, -187500.02, 0.000, 0.000, 0.000, 22:56:57.196, 1541908617196
92, -128.79, 15027.05, 187500.00, 187500.00, -187500.02, -187500.02, -187500.02, -187500.02, 0.094, 0.866, 0.494, 22:56:57.196, 1541908617196
93, -252.15, 14747.48, 187500.00, 187500.00, -187500.02, -187500.02, -187500.02, -187500.02, 0.000, 0.000, 0.000, 22:56:57.197, 1541908617197
94, -79.77, 14701.57, 187500.00, 187500.00, -187500.02, -187500.02, -187500.02, -187500.02, 0.000, 0.000, 0.000, 22:56:57.199, 1541908617199
95, 130.78, 15116.84, 187500.00, 187500.00, -187500.02, -187500.02, -187500.02, -187500.02, 0.000, 0.000, 0.000, 22:56:57.199, 1541908617199
96, -58.27, 15094.69, 187500.00, 187500.00, -187500.02, -187500.02, -187500.02, -187500.02, 0.000, 0.000, 0.000, 22:56:57.199, 1541908617199
97, -220.23, 14819.18, 187500.00, 187500.00, -187500.02, -187500.02, -187500.02, -187500.02, 0.000, 0.000, 0.000, 22:56:57.199, 1541908617199
98, -121.95, 14670.97, 187500.00, 187500.00, -187500.02, -187500.02, -187500.02, -187500.02, 0.000, 0.000, 0.000, 22:56:57.199, 1541908617199
99, 143.97, 15072.29, 187500.00, 187500.00, -187500.02, -187500.02, -187500.02, -187500.02, 0.000, 0.000, 0.000, 22:56:57.200, 1541908617200
100, -10.35, 15124.75, 187500.00, 187500.00, -187500.02, -187500.02, -187500.02, -187500.02, 0.000, 0.000, 0.000, 22:56:57.200, 1541908617200
101, -215.56, 14855.59, 187500.00, 187500.00, -187500.02, -187500.02, -187500.02, -187500.02, 0.000, 0.000, 0.000, 22:56:57.200, 1541908617200
102, -184.67, 14643.77, 187500.00, 187500.00, -187500.02, -187500.02, -187500.02, -187500.02, 0.104, 0.866, 0.492, 22:56:57.208, 1541908617208
103, 121.35, 15003.25, 187500.00, 187500.00, -187500.02, -187500.02, -187500.02, -187500.02, 0.000, 0.000, 0.000, 22:56:57.208, 1541908617208
104, 30.31, 15153.54, 187500.00, 187500.00, -187500.02, -187500.02, -187500.02, -187500.02, 0.000, 0.000, 0.000, 22:56:57.209, 1541908617209
105, -180.76, 14922.90, 187500.00, 187500.00, -187500.02, -187500.02, -187500.02, -187500.02, 0.000, 0.000, 0.000, 22:56:57.209, 1541908617209
106, -200.81, 14663.44, 187500.00, 187500.00, -187500.02, -187500.02, -187500.02, -187500.02, 0.000, 0.000, 0.000, 22:56:57.209, 1541908617209
107, 101.01, 14932.17, 187500.00, 187500.00, -187500.02, -187500.02, -187500.02, -187500.02, 0.000, 0.000, 0.000, 22:56:57.209, 1541908617209
108, 85.16, 15178.80, 187500.00, 187500.00, -187500.02, -187500.02, -187500.02, -187500.02, 0.000, 0.000, 0.000, 22:56:57.209, 1541908617209
109, -153.76, 14976.09, 187500.00, 187500.00, -187500.02, -187500.02, -187500.02, -187500.02, 0.000, 0.000, 0.000, 22:56:57.209, 1541908617209
110, -229.71, 14686.82, 187500.00, 187500.00, -187500.02, -187500.02, -187500.02, -187500.02, 0.000, 0.000, 0.000, 22:56:57.209, 1541908617209
111, 45.89, 14844.33, 187500.00, 187500.00, -187500.02, -187500.02, -187500.02, -187500.02, 0.000, 0.000, 0.000, 22:56:57.209, 1541908617209
112, 113.14, 15173.01, 187500.00, 187500.00, -187500.02, -187500.02, -187500.02, -187500.02, 0.104, 0.870, 0.488, 22:56:57.209, 1541908617209
113, -116.03, 15025.33, 187500.00, 187500.00, -187500.02, -187500.02, -187500.02, -187500.02, 0.000, 0.000, 0.000, 22:56:57.209, 1541908617209
114, -223.00, 14741.80, 187500.00, 187500.00, -187500.02, -187500.02, -187500.02, -187500.02, 0.000, 0.000, 0.000, 22:56:57.209, 1541908617209
115, -14.48, 14780.31, 187500.00, 187500.00, -187500.02, -187500.02, -187500.02, -187500.02, 0.000, 0.000, 0.000, 22:56:57.210, 1541908617210
116, 136.32, 15171.89, 187500.00, 187500.00, -187500.02, -187500.02, -187500.02, -187500.02, 0.000, 0.000, 0.000, 22:56:57.210, 1541908617210
117, -85.67, 15084.14, 187500.00, 187500.00, -187500.02, -187500.02, -187500.02, -187500.02, 0.000, 0.000, 0.000, 22:56:57.210, 1541908617210
118, -233.06, 14792.34, 187500.00, 187500.00, -187500.02, -187500.02, -187500.02, -187500.02, 0.000, 0.000, 0.000, 22:56:57.210, 1541908617210
119, -77.67, 14714.13, 187500.00, 187500.00, -187500.02, -187500.02, -187500.02, -187500.02, 0.000, 0.000, 0.000, 22:56:57.210, 1541908617210
120, 159.32, 15134.46, 187500.00, 187500.00, -187500.02, -187500.02, -187500.02, -187500.02, 0.000, 0.000, 0.000, 22:56:57.210, 1541908617210
121, -34.58, 15121.31, 187500.00, 187500.00, -187500.02, -187500.02, -187500.02, -187500.02, 0.000, 0.000, 0.000, 22:56:57.210, 1541908617210
122, -216.88, 14844.55, 187500.00, 187500.00, -187500.02, -187500.02, -187500.02, -187500.02, 0.094, 0.862, 0.492, 22:56:57.210, 1541908617210
123, -128.21, 14682.64, 187500.00, 187500.00, -187500.02, -187500.02, -187500.02, -187500.02, 0.000, 0.000, 0.000, 22:56:57.210, 1541908617210
124, 144.75, 15073.50, 187500.00, 187500.00, -187500.02, -187500.02, -187500.02, -187500.02, 0.000, 0.000, 0.000, 22:56:57.212, 1541908617212
125, -2.21, 15151.96, 187500.00, 187500.00, -187500.02, -187500.02, -187500.02, -187500.02, 0.000, 0.000, 0.000, 22:56:57.212, 1541908617212
126, -201.61, 14893.73, 187500.00, 187500.00, -187500.02, -187500.02, -187500.02, -187500.02, 0.000, 0.000, 0.000, 22:56:57.213, 1541908617213
127, -181.32, 14664.91, 187500.00, 187500.00, -187500.02, -187500.02, -187500.02, -187500.02, 0.000, 0.000, 0.000, 22:56:57.213, 1541908617213
128, 118.33, 15006.49, 187500.00, 187500.00, -187500.02, -187500.02, -187500.02, -187500.02, 0.000, 0.000, 0.000, 22:56:57.213, 1541908617213
129, 43.88, 15182.22, 187500.00, 187500.00, -187500.02, -187500.02, -187500.02, -187500.02, 0.000, 0.000, 0.000, 22:56:57.213, 1541908617213
130, -179.46, 14947.77, 187500.00, 187500.00, -187500.02, -187500.02, -187500.02, -187500.02, 0.000, 0.000, 0.000, 22:56:57.213, 1541908617213
131, -209.41, 14683.22, 187500.00, 187500.00, -187500.02, -187500.02, -187500.02, -187500.02, 0.096, 0.866, 0.488, 22:56:57.213, 1541908617213
132, 91.20, 14933.20, 187500.00, 187500.00, -187500.02, -187500.02, -187500.02, -187500.02, 0.000, 0.000, 0.000, 22:56:57.214, 1541908617214
133, 92.11, 15197.42, 187500.00, 187500.00, -187500.02, -187500.02, -187500.02, -187500.02, 0.000, 0.000, 0.000, 22:56:57.214, 1541908617214
134, -144.30, 15003.97, 187500.00, 187500.00, -187500.02, -187500.02, -187500.02, -187500.02, 0.000, 0.000, 0.000, 22:56:57.214, 1541908617214
135, -227.54, 14711.92, 187500.00, 187500.00, -187500.02, -187500.02, -187500.02, -187500.02, 0.000, 0.000, 0.000, 22:56:57.215, 1541908617215
136, 27.45, 14841.40, 187500.00, 187500.00, -187500.02, -187500.02, -187500.02, -187500.02, 0.000, 0.000, 0.000, 22:56:57.215, 1541908617215
137, 106.93, 15187.99, 187500.00, 187500.00, -187500.02, -187500.02, -187500.02, -187500.02, 0.000, 0.000, 0.000, 22:56:57.215, 1541908617215
138, -134.54, 15043.75, 187500.00, 187500.00, -187500.02, -187500.02, -187500.02, -187500.02, 0.000, 0.000, 0.000, 22:56:57.215, 1541908617215
139, -255.79, 14747.97, 187500.00, 187500.00, -187500.02, -187500.02, -187500.02, -187500.02, 0.000, 0.000, 0.000, 22:56:57.216, 1541908617216
140, -41.48, 14765.34, 187500.00, 187500.00, -187500.02, -187500.02, -187500.02, -187500.02, 0.000, 0.000, 0.000, 22:56:57.216, 1541908617216
141, 126.89, 15166.15, 187500.00, 187500.00, -187500.02, -187500.02, -187500.02, -187500.02, 0.094, 0.870, 0.488, 22:56:57.216, 1541908617216
142, -86.32, 15086.69, 187500.00, 187500.00, -187500.02, -187500.02, -187500.02, -187500.02, 0.000, 0.000, 0.000, 22:56:57.216, 1541908617216
143, -237.35, 14799.69, 187500.00, 187500.00, -187500.02, -187500.02, -187500.02, -187500.02, 0.000, 0.000, 0.000, 22:56:57.216, 1541908617216
144, -96.85, 14708.18, 187500.00, 187500.00, -187500.02, -187500.02, -187500.02, -187500.02, 0.000, 0.000, 0.000, 22:56:57.216, 1541908617216
145, 134.76, 15117.85, 187500.00, 187500.00, -187500.02, -187500.02, -187500.02, -187500.02, 0.000, 0.000, 0.000, 22:56:57.216, 1541908617216
146, -50.22, 15125.04, 187500.00, 187500.00, -187500.02, -187500.02, -187500.02, -187500.02, 0.000, 0.000, 0.000, 22:56:57.216, 1541908617216
147, -229.04, 14853.58, 187500.00, 187500.00, -187500.02, -187500.02, -187500.02, -187500.02, 0.000, 0.000, 0.000, 22:56:57.216, 1541908617216
148, -166.01, 14664.84, 187500.00, 187500.00, -187500.02, -187500.02, -187500.02, -187500.02, 0.000, 0.000, 0.000, 22:56:57.217, 1541908617217
149, 119.96, 15055.73, 187500.00, 187500.00, -187500.02, -187500.02, -187500.02, -187500.02, 0.000, 0.000, 0.000, 22:56:57.217, 1541908617217
150, -12.25, 15153.74, 187500.00, 187500.00, -187500.02, -187500.02, -187500.02, -187500.02, 0.000, 0.000, 0.000, 22:56:57.217, 1541908617217
151, -215.47, 14896.19, 187500.00, 187500.00, -187500.02, -187500.02, -187500.02, -187500.02, 0.102, 0.866, 0.488, 22:56:57.217, 1541908617217
0, 0.00, 0.00, 0.00, 0.00, 0.00, 0.00, 0.00, 0.00, 0.000, 0.000, 0.000, 22:56:57.217, 1541908617217
1, 124.03, 15247.58, 0.00, 187500.00, -187500.02, -187500.02, -187500.02, -187500.02, 0.000, 0.000, 0.000, 22:56:57.519, 1541908617519
2, 31.65, 14909.26, 0.00, 187500.00, -187500.02, -187500.02, -187500.02, -187500.02, 0.000, 0.000, 0.000, 22:56:57.519, 1541908617519
3, 281.63, 15142.81, 0.00, 187500.00, -187500.02, -187500.02, -187500.02, -187500.02, 0.102, 0.862, 0.488, 22:56:57.519, 1541908617519
4, 227.21, 15355.29, 0.00, 187500.00, -187500.02, -187500.02, -187500.02, -187500.02, 0.000, 0.000, 0.000, 22:56:57.519, 1541908617519
5, -25.73, 15130.10, 0.00, 187500.00, -187500.02, -187500.02, -187500.02, -187500.02, 0.000, 0.000, 0.000, 22:56:57.528, 1541908617528
6, -115.60, 14821.02, 0.00, 187500.00, -187500.02, -187500.02, -187500.02, -187500.02, 0.000, 0.000, 0.000, 22:56:57.529, 1541908617529
7, 145.76, 14974.42, 0.00, 187500.00, -187500.02, -187500.02, -187500.02, -187500.02, 0.000, 0.000, 0.000, 22:56:57.529, 1541908617529
8, 199.98, 15289.02, 0.00, 187500.00, -187500.02, -187500.02, -187500.02, -187500.02, 0.000, 0.000, 0.000, 22:56:57.529, 1541908617529
9, -44.06, 15115.17, 0.00, 187500.00, -187500.02, -187500.02, -187500.02, -187500.02, 0.000, 0.000, 0.000, 22:56:57.529, 1541908617529
10, -161.76, 14812.46, 0.00, 187500.00, -187500.02, -187500.02, -187500.02, -187500.02, 0.000, 0.000, 0.000, 22:56:57.529, 1541908617529
11, 42.45, 14855.44, 0.00, 187500.00, -187500.02, -187500.02, -187500.02, -187500.02, 0.000, 0.000, 0.000, 22:56:57.529, 1541908617529
12, 175.19, 15243.17, 0.00, 187500.00, -187500.02, -187500.02, -187500.02, -187500.02, 0.100, 0.860, 0.490, 22:56:57.529, 1541908617529
13, -45.40, 15145.23, 0.00, 187500.00, -187500.02, -187500.02, -187500.02, -187500.02, 0.000, 0.000, 0.000, 22:56:57.529, 1541908617529
14, -182.61, 14853.47, 0.00, 187500.00, -187500.02, -187500.02, -187500.02, -187500.02, 0.000, 0.000, 0.000, 22:56:57.529, 1541908617529
15, -17.64, 14790.33, 0.00, 187500.00, -187500.02, -187500.02, -187500.02, -187500.02, 0.000, 0.000, 0.000, 22:56:57.530, 1541908617530
16, 202.13, 15209.53, 0.00, 187500.00, -187500.02, -187500.02, -187500.02, -187500.02, 0.000, 0.000, 0.000, 22:56:57.530, 1541908617530
17, -0.07, 15185.31, 0.00, 187500.00, -187500.02, -187500.02, -187500.02, -187500.02, 0.000, 0.000, 0.000, 22:56:57.530, 1541908617530
18, -179.02, 14893.79, 0.00, 187500.00, -187500.02, -187500.02, -187500.02, -187500.02, 0.000, 0.000, 0.000, 22:56:57.530, 1541908617530
19, -106.30, 14730.11, 0.00, 187500.00, -187500.02, -187500.02, -187500.02, -187500.02, 0.000, 0.000, 0.000, 22:56:57.530, 1541908617530
20, 168.11, 15136.89, 0.00, 187500.00, -187500.02, -187500.02, -187500.02, -187500.02, 0.000, 0.000, 0.000, 22:56:57.530, 1541908617530
21, 28.57, 15204.19, 0.00, 187500.00, -187500.02, -187500.02, -187500.02, -187500.02, 0.000, 0.000, 0.000, 22:56:57.530, 1541908617530
22, -177.90, 14934.07, 0.00, 187500.00, -187500.02, -187500.02, -187500.02, -187500.02, 0.102, 0.864, 0.498, 22:56:57.530, 1541908617530
23, -160.31, 14702.06, 0.00, 187500.00, -187500.02, -187500.02, -187500.02, -187500.02, 0.000, 0.000, 0.000, 22:56:57.530, 1541908617530
24, 139.07, 15047.28, 0.00, 187500.00, -187500.02, -187500.02, -187500.02, -187500.02, 0.000, 0.000, 0.000, 22:56:57.530, 1541908617530
25, 52.93, 15211.05, 0.00, 187500.00, -187500.02, -187500.02, -187500.02, -187500.02, 0.000, 0.000, 0.000, 22:56:57.531, 1541908617531
26, -179.80, 14967.38, 0.00, 187500.00, -187500.02, -187500.02, -187500.02, -187500.02, 0.000, 0.000, 0.000, 22:56:57.531, 1541908617531
27, -210.84, 14694.04, 0.00, 187500.00, -187500.02, -187500.02, -187500.02, -187500.02, 0.000, 0.000, 0.000, 22:56:57.531, 1541908617531
28, 89.72, 14953.23, 0.00, 187500.00, -187500.02, -187500.02, -187500.02, -187500.02, 0.000, 0.000, 0.000, 22:56:57.531, 1541908617531
29, 94.66, 15221.43, 0.00, 187500.00, -187500.02, -187500.02, -187500.02, -187500.02, 0.000, 0.000, 0.000, 22:56:57.532, 1541908617532
30, -133.26, 15022.72, 0.00, 187500.00, -187500.02, -187500.02, -187500.02, -187500.02, 0.000, 0.000, 0.000, 22:56:57.532, 1541908617532
31, -210.87, 14740.71, 0.00, 187500.00, -187500.02, -187500.02, -187500.02, -187500.02, 0.000, 0.000, 0.000, 22:56:57.532, 1541908617532
32, 38.20, 14876.38, 0.00, 187500.00, -187500.02, -187500.02, -187500.02, -187500.02, 0.100, 0.858, 0.498, 22:56:57.532, 1541908617532
33, 119.78, 15218.48, 0.00, 187500.00, -187500.02, -187500.02, -187500.02, -187500.02, 0.000, 0.000, 0.000, 22:56:57.532, 1541908617532
34, -102.15, 15076.88, 0.00, 187500.00, -187500.02, -187500.02, -187500.02, -187500.02, 0.000, 0.000, 0.000, 22:56:57.532, 1541908617532
35, -227.90, 14773.00, 0.00, 187500.00, -187500.02, -187500.02, -187500.02, -187500.02, 0.000, 0.000, 0.000, 22:56:57.532, 1541908617532
36, -21.84, 14787.58, 0.00, 187500.00, -187500.02, -187500.02, -187500.02, -187500.02, 0.000, 0.000, 0.000, 22:56:57.532, 1541908617532
37, 143.34, 15187.81, 0.00, 187500.00, -187500.02, -187500.02, -187500.02, -187500.02, 0.000, 0.000, 0.000, 22:56:57.533, 1541908617533
38, -69.25, 15110.92, 0.00, 187500.00, -187500.02, -187500.02, -187500.02, -187500.02, 0.000, 0.000, 0.000, 22:56:57.534, 1541908617534
39, -223.38, 14816.03, 0.00, 187500.00, -187500.02, -187500.02, -187500.02, -187500.02, 0.000, 0.000, 0.000, 22:56:57.534, 1541908617534
40, -84.65, 14727.76, 0.00, 187500.00, -187500.02, -187500.02, -187500.02, -187500.02, 0.000, 0.000, 0.000, 22:56:57.534, 1541908617534
41, 161.63, 15157.01, 0.00, 187500.00, -187500.02, -187500.02, -187500.02, -187500.02, 0.000, 0.000, 0.000, 22:56:57.534, 1541908617534
42, -12.32, 15158.24, 0.00, 187500.00, -187500.02, -187500.02, -187500.02, -187500.02, 0.096, 0.858, 0.496, 22:56:57.535, 1541908617535
43, -209.84, 14868.80, 0.00, 187500.00, -187500.02, -187500.02, -187500.02, -187500.02, 0.000, 0.000, 0.000, 22:56:57.535, 1541908617535
44, -135.68, 14705.61, 0.00, 187500.00, -187500.02, -187500.02, -187500.02, -187500.02, 0.000, 0.000, 0.000, 22:56:57.535, 1541908617535
45, 151.95, 15113.38, 0.00, 187500.00, -187500.02, -187500.02, -187500.02, -187500.02, 0.000, 0.000, 0.000, 22:56:57.535, 1541908617535
46, 16.94, 15196.71, 0.00, 187500.00, -187500.02, -187500.02, -187500.02, -187500.02, 0.000, 0.000, 0.000, 22:56:57.535, 1541908617535
47, -189.43, 14924.50, 0.00, 187500.00, -187500.02, -187500.02, -187500.02, -187500.02, 0.000, 0.000, 0.000, 22:56:57.535, 1541908617535
48, -184.80, 14671.48, 0.00, 187500.00, -187500.02, -187500.02, -187500.02, -187500.02, 0.000, 0.000, 0.000, 22:56:57.535, 1541908617535
49, 125.73, 15004.08, 0.00, 187500.00, -187500.02, -187500.02, -187500.02, -187500.02, 0.000, 0.000, 0.000, 22:56:57.535, 1541908617535
50, 74.05, 15200.84, 0.00, 187500.00, -187500.02, -187500.02, -187500.02, -187500.02, 0.000, 0.000, 0.000, 22:56:57.535, 1541908617535
51, -140.79, 14971.06, 0.00, 187500.00, -187500.02, -187500.02, -187500.02, -187500.02, 0.100, 0.862, 0.500, 22:56:57.535, 1541908617535
52, -170.28, 14704.34, 0.00, 187500.00, -187500.02, -187500.02, -187500.02, -187500.02, 0.000, 0.000, 0.000, 22:56:57.535, 1541908617535
53, 114.04, 14934.50, 0.00, 187500.00, -187500.02, -187500.02, -187500.02, -187500.02, 0.000, 0.000, 0.000, 22:56:57.535, 1541908617535
54, 112.70, 15209.71, 0.00, 187500.00, -187500.02, -187500.02, -187500.02, -187500.02, 0.000, 0.000, 0.000, 22:56:57.535, 1541908617535
55, -128.01, 15016.97, 0.00, 187500.00, -187500.02, -187500.02, -187500.02, -187500.02, 0.000, 0.000, 0.000, 22:56:57.535, 1541908617535
56, -213.57, 14724.95, 0.00, 187500.00, -187500.02, -187500.02, -187500.02, -187500.02, 0.000, 0.000, 0.000, 22:56:57.536, 1541908617536
57, 47.45, 14846.72, 0.00, 187500.00, -187500.02, -187500.02, -187500.02, -187500.02, 0.000, 0.000, 0.000, 22:56:57.536, 1541908617536
58, 156.19, 15217.47, 0.00, 187500.00, -187500.02, -187500.02, -187500.02, -187500.02, 0.000, 0.000, 0.000, 22:56:57.536, 1541908617536
59, -63.48, 15087.76, 0.00, 187500.00, -187500.02, -187500.02, -187500.02, -187500.02, 0.000, 0.000, 0.000, 22:56:57.536, 1541908617536
60, -191.80, 14784.54, 0.00, 187500.00, -187500.02, -187500.02, -187500.02, -187500.02, 0.000, 0.000, 0.000, 22:56:57.536, 1541908617536
61, 12.43, 14787.20, 0.00, 187500.00, -187500.02, -187500.02, -187500.02, -187500.02, 0.088, 0.868, 0.498, 22:56:57.536, 1541908617536
62, 204.03, 15206.18, 0.00, 187500.00, -187500.02, -187500.02, -187500.02, -187500.02, 0.000, 0.000, 0.000, 22:56:57.536, 1541908617536
63, -13.14, 15135.82, 0.00, 187500.00, -187500.02, -187500.02, -187500.02, -187500.02, 0.000, 0.000, 0.000, 22:56:57.537, 1541908617537
64, -178.57, 14842.32, 0.00, 187500.00, -187500.02, -187500.02, -187500.02, -187500.02, 0.000, 0.000, 0.000, 22:56:57.537, 1541908617537
65, -52.39, 14732.82, 0.00, 187500.00, -187500.02, -187500.02, -187500.02, -187500.02, 0.000, 0.000, 0.000, 22:56:57.537, 1541908617537
66, 210.13, 15158.80, 0.00, 187500.00, -187500.02, -187500.02, -187500.02, -187500.02, 0.000, 0.000, 0.000, 22:56:57.537, 1541908617537
67, 42.49, 15175.00, 0.00, 187500.00, -187500.02, -187500.02, -187500.02, -187500.02, 0.000, 0.000, 0.000, 22:56:57.537, 1541908617537
68, -150.65, 14892.92, 0.00, 187500.00, -187500.02, -187500.02, -187500.02, -187500.02, 0.000, 0.000, 0.000, 22:56:57.537, 1541908617537
69, -79.84, 14702.44, 0.00, 187500.00, -187500.02, -187500.02, -187500.02, -187500.02, 0.000, 0.000, 0.000, 22:56:57.538, 1541908617538
70, 221.57, 15090.29, 0.00, 187500.00, -187500.02, -187500.02, -187500.02, -187500.02, 0.000, 0.000, 0.000, 22:56:57.538, 1541908617538
71, 103.04, 15203.86, 0.00, 187500.00, -187500.02, -187500.02, -187500.02, -187500.02, 0.090, 0.862, 0.502, 22:56:57.539, 1541908617539
72, -95.84, 14962.15, 0.00, 187500.00, -187500.02, -187500.02, -187500.02, -187500.02, 0.000, 0.000, 0.000, 22:56:57.539, 1541908617539
73, -103.15, 14714.15, 0.00, 187500.00, -187500.02, -187500.02, -187500.02, -187500.02, 0.000, 0.000, 0.000, 22:56:57.539, 1541908617539
74, 205.17, 15020.57, 0.00, 187500.00, -187500.02, -187500.02, -187500.02, -187500.02, 0.000, 0.000, 0.000, 22:56:57.539, 1541908617539
75, 154.99, 15229.50, 0.00, 187500.00, -187500.02, -187500.02, -187500.02, -187500.02, 0.000, 0.000, 0.000, 22:56:57.539, 1541908617539
0, 0.00, 0.00, 0.00, 0.00, 0.00, 0.00, 0.00, 0.00, 0.000, 0.000, 0.000, 22:56:57.539, 1541908617539
1, 569.99, 15592.60, 0.00, 0.00, -187500.02, -187500.02, -187500.02, -187500.02, 0.088, 0.854, 0.506, 22:56:57.920, 1541908617920
2, 253.42, 15344.96, 0.00, 0.00, -187500.02, -187500.02, -187500.02, -187500.02, 0.000, 0.000, 0.000, 22:56:57.920, 1541908617920
3, 79.24, 14985.03, 0.00, 0.00, -187500.02, -187500.02, -187500.02, -187500.02, 0.000, 0.000, 0.000, 22:56:57.920, 1541908617920
4, 266.16, 15002.36, 0.00, 0.00, -187500.02, -187500.02, -187500.02, -187500.02, 0.000, 0.000, 0.000, 22:56:57.920, 1541908617920
5, 384.29, 15366.96, 0.00, 0.00, -187500.02, -187500.02, -187500.02, -187500.02, 0.000, 0.000, 0.000, 22:56:57.920, 1541908617920
6, 150.23, 15245.81, 0.00, 0.00, -187500.02, -187500.02, -187500.02, -187500.02, 0.000, 0.000, 0.000, 22:56:57.920, 1541908617920
7, -21.93, 14922.76, 0.00, 0.00, -187500.02, -187500.02, -187500.02, -187500.02, 0.000, 0.000, 0.000, 22:56:57.920, 1541908617920
8, 112.68, 14849.07, 0.00, 0.00, -187500.02, -187500.02, -187500.02, -187500.02, 0.096, 0.858, 0.504, 22:56:57.920, 1541908617920
9, 326.54, 15266.71, 0.00, 0.00, -187500.02, -187500.02, -187500.02, -187500.02, 0.000, 0.000, 0.000, 22:56:57.920, 1541908617920
10, 134.00, 15234.72, 0.00, 0.00, -187500.02, -187500.02, -187500.02, -187500.02, 0.000, 0.000, 0.000, 22:56:57.921, 1541908617921
11, -43.16, 14944.33, 0.00, 0.00, -187500.02, -187500.02, -187500.02, -187500.02, 0.000, 0.000, 0.000, 22:56:57.921, 1541908617921
12, 36.75, 14781.50, 0.00, 0.00, -187500.02, -187500.02, -187500.02, -187500.02, 0.000, 0.000, 0.000, 22:56:57.921, 1541908617921
13, 302.55, 15184.77, 0.00, 0.00, -187500.02, -187500.02, -187500.02, -187500.02, 0.000, 0.000, 0.000, 22:56:57.921, 1541908617921
14, 156.48, 15250.53, 0.00, 0.00, -187500.02, -187500.02, -187500.02, -187500.02, 0.000, 0.000, 0.000, 22:56:57.921, 1541908617921
15, -44.68, 14981.97, 0.00, 0.00, -187500.02, -187500.02, -187500.02, -187500.02, 0.000, 0.000, 0.000, 22:56:57.921, 1541908617921
16, -28.30, 14749.98, 0.00, 0.00, -187500.02, -187500.02, -187500.02, -187500.02, 0.000, 0.000, 0.000, 22:56:57.921, 1541908617921
17, 266.68, 15100.37, 0.00, 0.00, -187500.02, -187500.02, -187500.02, -187500.02, 0.000, 0.000, 0.000, 22:56:57.921, 1541908617921
18, 171.44, 15248.20, 0.00, 0.00, -187500.02, -187500.02, -187500.02, -187500.02, 0.102, 0.862, 0.496, 22:56:57.921, 1541908617921
19, -51.65, 15006.38, 0.00, 0.00, -187500.02, -187500.02, -187500.02, -187500.02, 0.000, 0.000, 0.000, 22:56:57.921, 1541908617921
20, -86.59, 14736.08, 0.00, 0.00, -187500.02, -187500.02, -187500.02, -187500.02, 0.000, 0.000, 0.000, 22:56:57.921, 1541908617921
21, 209.55, 14999.58, 0.00, 0.00, -187500.02, -187500.02, -187500.02, -187500.02, 0.000, 0.000, 0.000, 22:56:57.921, 1541908617921
22, 206.82, 15257.50, 0.00, 0.00, -187500.02, -187500.02, -187500.02, -187500.02, 0.000, 0.000, 0.000, 22:56:57.921, 1541908617921
23, -17.46, 15058.88, 0.00, 0.00, -187500.02, -187500.02, -187500.02, -187500.02, 0.000, 0.000, 0.000, 22:56:57.921, 1541908617921
24, -99.78, 14763.62, 0.00, 0.00, -187500.02, -187500.02, -187500.02, -187500.02, 0.000, 0.000, 0.000, 22:56:57.921, 1541908617921
25, 159.99, 14912.28, 0.00, 0.00, -187500.02, -187500.02, -187500.02, -187500.02, 0.000, 0.000, 0.000, 22:56:57.921, 1541908617921
26, 237.73, 15252.45, 0.00, 0.00, -187500.02, -187500.02, -187500.02, -187500.02, 0.000, 0.000, 0.000, 22:56:57.921, 1541908617921
27, 16.29, 15109.44, 0.00, 0.00, -187500.02, -187500.02, -187500.02, -187500.02, 0.000, 0.000, 0.000, 22:56:57.922, 1541908617922
28, -107.09, 14804.28, 0.00, 0.00, -187500.02, -187500.02, -187500.02, -187500.02, 0.100, 0.866, 0.486, 22:56:57.922, 1541908617922
29, 88.58, 14825.20, 0.00, 0.00, -187500.02, -187500.02, -187500.02, -187500.02, 0.000, 0.000, 0.000, 22:56:57.922, 1541908617922
30, 255.73, 15227.48, 0.00, 0.00, -187500.02, -187500.02, -187500.02, -187500.02, 0.000, 0.000, 0.000, 22:56:57.922, 1541908617922
31, 52.08, 15149.63, 0.00, 0.00, -187500.02, -187500.02, -187500.02, -187500.02, 0.000, 0.000, 0.000, 22:56:57.922, 1541908617922
32, -104.43, 14852.76, 0.00, 0.00, -187500.02, -187500.02, -187500.02, -187500.02, 0.000, 0.000, 0.000, 22:56:57.922, 1541908617922
33, 21.99, 14761.49, 0.00, 0.00, -187500.02, -187500.02, -187500.02, -187500.02, 0.000, 0.000, 0.000, 22:56:57.922, 1541908617922
34, 256.82, 15186.27, 0.00, 0.00, -187500.02, -187500.02, -187500.02, -187500.02, 0.000, 0.000, 0.000, 22:56:57.922, 1541908617922
35, 86.23, 15191.00, 0.00, 0.00, -187500.02, -187500.02, -187500.02, -187500.02, 0.000, 0.000, 0.000, 22:56:57.922, 1541908617922
36, -93.52, 14906.24, 0.00, 0.00, -187500.02, -187500.02, -187500.02, -187500.02, 0.000, 0.000, 0.000, 22:56:57.922, 1541908617922
37, -26.62, 14723.61, 0.00, 0.00, -187500.02, -187500.02, -187500.02, -187500.02, 0.000, 0.000, 0.000, 22:56:57.922, 1541908617922
38, 256.46, 15125.96, 0.00, 0.00, -187500.02, -187500.02, -187500.02, -187500.02, 0.098, 0.876, 0.488, 22:56:57.922, 1541908617922
39, 128.28, 15213.40, 0.00, 0.00, -187500.02, -187500.02, -187500.02, -187500.02, 0.000, 0.000, 0.000, 22:56:57.922, 1541908617922
40, -80.40, 14948.82, 0.00, 0.00, -187500.02, -187500.02, -187500.02, -187500.02, 0.000, 0.000, 0.000, 22:56:57.922, 1541908617922
41, -84.42, 14703.89, 0.00, 0.00, -187500.02, -187500.02, -187500.02, -187500.02, 0.000, 0.000, 0.000, 22:56:57.922, 1541908617922
42, 208.16, 15038.95, 0.00, 0.00, -187500.02, -187500.02, -187500.02, -187500.02, 0.000, 0.000, 0.000, 22:56:57.922, 1541908617922
43, 149.02, 15230.34, 0.00, 0.00, -187500.02, -187500.02, -187500.02, -187500.02, 0.000, 0.000, 0.000, 22:56:57.923, 1541908617923
44, -68.58, 15002.51, 0.00, 0.00, -187500.02, -187500.02, -187500.02, -187500.02, 0.000, 0.000, 0.000, 22:56:57.923, 1541908617923
45, -113.44, 14720.57, 0.00, 0.00, -187500.02, -187500.02, -187500.02, -187500.02, 0.000, 0.000, 0.000, 22:56:57.923, 1541908617923
46, 169.05, 14953.58, 0.00, 0.00, -187500.02, -187500.02, -187500.02, -187500.02, 0.000, 0.000, 0.000, 22:56:57.923, 1541908617923
47, 178.23, 15231.01, 0.00, 0.00, -187500.02, -187500.02, -187500.02, -187500.02, 0.000, 0.000, 0.000, 22:56:57.923, 1541908617923
48, -43.41, 15048.00, 0.00, 0.00, -187500.02, -187500.02, -187500.02, -187500.02, 0.104, 0.870, 0.488, 22:56:57.923, 1541908617923
49, -126.51, 14754.25, 0.00, 0.00, -187500.02, -187500.02, -187500.02, -187500.02, 0.000, 0.000, 0.000, 22:56:57.923, 1541908617923
50, 124.34, 14866.70, 0.00, 0.00, -187500.02, -187500.02, -187500.02, -187500.02, 0.000, 0.000, 0.000, 22:56:57.923, 1541908617923
51, 221.35, 15227.17, 0.00, 0.00, -187500.02, -187500.02, -187500.02, -187500.02, 0.000, 0.000, 0.000, 22:56:57.923, 1541908617923
52, -7.87, 15091.32, 0.00, 0.00, -187500.02, -187500.02, -187500.02, -187500.02, 0.000, 0.000, 0.000, 22:56:57.923, 1541908617923
53, -134.58, 14793.37, 0.00, 0.00, -187500.02, -187500.02, -187500.02, -187500.02, 0.000, 0.000, 0.000, 22:56:57.923, 1541908617923
54, 61.69, 14798.67, 0.00, 0.00, -187500.02, -187500.02, -187500.02, -187500.02, 0.000, 0.000, 0.000, 22:56:57.923, 1541908617923
55, 246.18, 15217.04, 0.00, 0.00, -187500.02, -187500.02, -187500.02, -187500.02, 0.000, 0.000, 0.000, 22:56:57.923, 1541908617923
56, 37.80, 15153.01, 0.00, 0.00, -187500.02, -187500.02, -187500.02, -187500.02, 0.000, 0.000, 0.000, 22:56:57.923, 1541908617923
57, -123.54, 14853.14, 0.00, 0.00, -187500.02, -187500.02, -187500.02, -187500.02, 0.100, 0.862, 0.484, 22:56:57.923, 1541908617923
58, -4.52, 14738.94, 0.00, 0.00, -187500.02, -187500.02, -187500.02, -187500.02, 0.000, 0.000, 0.000, 22:56:57.923, 1541908617923
59, 244.53, 15164.34, 0.00, 0.00, -187500.02, -187500.02, -187500.02, -187500.02, 0.000, 0.000, 0.000, 22:56:57.923, 1541908617923
60, 74.16, 15184.84, 0.00, 0.00, -187500.02, -187500.02, -187500.02, -187500.02, 0.000, 0.000, 0.000, 22:56:57.923, 1541908617923
61, -111.96, 14904.17, 0.00, 0.00, -187500.02, -187500.02, -187500.02, -187500.02, 0.000, 0.000, 0.000, 22:56:57.924, 1541908617924
62, -48.73, 14712.45, 0.00, 0.00, -187500.02, -187500.02, -187500.02, -187500.02, 0.000, 0.000, 0.000, 22:56:57.924, 1541908617924
63, 251.57, 15108.57, 0.00, 0.00, -187500.02, -187500.02, -187500.02, -187500.02, 0.000, 0.000, 0.000, 22:56:57.924, 1541908617924
64, 136.03, 15219.86, 0.00, 0.00, -187500.02, -187500.02, -187500.02, -187500.02, 0.000, 0.000, 0.000, 22:56:57.924, 1541908617924
65, -75.71, 14968.05, 0.00, 0.00, -187500.02, -187500.02, -187500.02, -187500.02, 0.000, 0.000, 0.000, 22:56:57.924, 1541908617924
66, -85.16, 14719.65, 0.00, 0.00, -187500.02, -187500.02, -187500.02, -187500.02, 0.000, 0.000, 0.000, 22:56:57.924, 1541908617924
67, 213.64, 15035.66, 0.00, 0.00, -187500.02, -187500.02, -187500.02, -187500.02, 0.100, 0.872, 0.486, 22:56:57.924, 1541908617924
68, 170.86, 15243.17, 0.00, 0.00, -187500.02, -187500.02, -187500.02, -187500.02, 0.000, 0.000, 0.000, 22:56:57.924, 1541908617924
69, -51.72, 15019.21, 0.00, 0.00, -187500.02, -187500.02, -187500.02, -187500.02, 0.000, 0.000, 0.000, 22:56:57.924, 1541908617924
70, -119.56, 14732.10, 0.00, 0.00, -187500.02, -187500.02, -187500.02, -187500.02, 0.000, 0.000, 0.000, 22:56:57.924, 1541908617924
71, 161.13, 14947.77, 0.00, 0.00, -187500.02, -187500.02, -187500.02, -187500.02, 0.000, 0.000, 0.000, 22:56:57.924, 1541908617924
72, 209.75, 15251.96, 0.00, 0.00, -187500.02, -187500.02, -187500.02, -187500.02, 0.000, 0.000, 0.000, 22:56:57.924, 1541908617924
73, -10.21, 15075.13, 0.00, 0.00, -187500.02, -187500.02, -187500.02, -187500.02, 0.000, 0.000, 0.000, 22:56:57.924, 1541908617924
74, -126.87, 14766.39, 0.00, 0.00, -187500.02, -187500.02, -187500.02, -187500.02, 0.000, 0.000, 0.000, 22:56:57.924, 1541908617924
75, 114.31, 14860.87, 0.00, 0.00, -187500.02, -187500.02, -187500.02, -187500.02, 0.000, 0.000, 0.000, 22:56:57.925, 1541908617925
76, 235.21, 15239.58, 0.00, 0.00, -187500.02, -187500.02, -187500.02, -187500.02, 0.000, 0.000, 0.000, 22:56:57.925, 1541908617925
77, 13.59, 15118.61, 0.00, 0.00, -187500.02, -187500.02, -187500.02, -187500.02, 0.100, 0.872, 0.482, 22:56:57.925, 1541908617925
78, -124.75, 14812.70, 0.00, 0.00, -187500.02, -187500.02, -187500.02, -187500.02, 0.000, 0.000, 0.000, 22:56:57.925, 1541908617925
79, 43.94, 14784.72, 0.00, 0.00, -187500.02, -187500.02, -187500.02, -187500.02, 0.000, 0.000, 0.000, 22:56:57.925, 1541908617925
80, 250.32, 15212.57, 0.00, 0.00, -187500.02, -187500.02, -187500.02, -187500.02, 0.000, 0.000, 0.000, 22:56:57.925, 1541908617925
81, 51.32, 15163.31, 0.00, 0.00, -187500.02, -187500.02, -187500.02, -187500.02, 0.000, 0.000, 0.000, 22:56:57.925, 1541908617925
82, -116.99, 14873.59, 0.00, 0.00, -187500.02, -187500.02, -187500.02, -187500.02, 0.000, 0.000, 0.000, 22:56:57.925, 1541908617925
83, -9.19, 14745.85, 0.00, 0.00, -187500.02, -187500.02, -187500.02, -187500.02, 0.000, 0.000, 0.000, 22:56:57.925, 1541908617925
84, 255.44, 15169.03, 0.00, 0.00, -187500.02, -187500.02, -187500.02, -187500.02, 0.000, 0.000, 0.000, 22:56:57.925, 1541908617925
85, 95.08, 15206.27, 0.00, 0.00, -187500.02, -187500.02, -187500.02, -187500.02, 0.000, 0.000, 0.000, 22:56:57.926, 1541908617926
86, -105.01, 14919.68, 0.00, 0.00, -187500.02, -187500.02, -187500.02, -187500.02, 0.000, 0.000, 0.000, 22:56:57.926, 1541908617926
87, -61.87, 14713.10, 0.00, 0.00, -187500.02, -187500.02, -187500.02, -187500.02, 0.104, 0.866, 0.482, 22:56:57.926, 1541908617926
88, 233.31, 15093.62, 0.00, 0.00, -187500.02, -187500.02, -187500.02, -187500.02, 0.000, 0.000, 0.000, 22:56:57.926, 1541908617926
89, 117.66, 15223.10, 0.00, 0.00, -187500.02, -187500.02, -187500.02, -187500.02, 0.000, 0.000, 0.000, 22:56:57.926, 1541908617926
90, -104.56, 14965.48, 0.00, 0.00, -187500.02, -187500.02, -187500.02, -187500.02, 0.000, 0.000, 0.000, 22:56:57.926, 1541908617926
91, -121.19, 14703.33, 0.00, 0.00, -187500.02, -187500.02, -187500.02, -187500.02, 0.000, 0.000, 0.000, 22:56:57.926, 1541908617926
92, 182.23, 15009.17, 0.00, 0.00, -187500.02, -187500.02, -187500.02, -187500.02, 0.000, 0.000, 0.000, 22:56:57.926, 1541908617926
0, 0.00, 0.00, 0.00, 0.00, 0.00, 0.00, 0.00, 0.00, 0.102, 0.866, 0.484, 22:56:57.935, 1541908617935
1, 47.52, 14823.97, 0.00, 0.00, 0.00, -187500.02, -187500.02, -187500.02, 0.000, 0.000, 0.000, 22:56:58.384, 1541908618384
2, 131.70, 15171.49, 0.00, 0.00, 0.00, -187500.02, -187500.02, -187500.02, 0.000, 0.000, 0.000, 22:56:58.385, 1541908618385
3, -89.00, 15024.24, 0.00, 0.00, 0.00, -187500.02, -187500.02, -187500.02, 0.000, 0.000, 0.000, 22:56:58.385, 1541908618385
4, -202.62, 14726.36, 0.00, 0.00, 0.00, -187500.02, -187500.02, -187500.02, 0.000, 0.000, 0.000, 22:56:58.385, 1541908618385
5, 21.57, 14782.17, 0.00, 0.00, 0.00, -187500.02, -187500.02, -187500.02, 0.000, 0.000, 0.000, 22:56:58.385, 1541908618385
6, 188.78, 15197.42, 0.00, 0.00, 0.00, -187500.02, -187500.02, -187500.02, 0.000, 0.000, 0.000, 22:56:58.385, 1541908618385
7, -21.39, 15103.90, 0.00, 0.00, 0.00, -187500.02, -187500.02, -187500.02, 0.102, 0.864, 0.484, 22:56:58.385, 1541908618385
8, -176.67, 14801.59, 0.00, 0.00, 0.00, -187500.02, -187500.02, -187500.02, 0.000, 0.000, 0.000, 22:56:58.385, 1541908618385
9, -32.01, 14736.30, 0.00, 0.00, 0.00, -187500.02, -187500.02, -187500.02, 0.000, 0.000, 0.000, 22:56:58.385, 1541908618385
10, 193.03, 15164.56, 0.00, 0.00, 0.00, -187500.02, -187500.02, -187500.02, 0.000, 0.000, 0.000, 22:56:58.385, 1541908618385
11, 10.82, 15150.35, 0.00, 0.00, 0.00, -187500.02, -187500.02, -187500.02, 0.000, 0.000, 0.000, 22:56:58.385, 1541908618385
12, -150.40, 14869.48, 0.00, 0.00, 0.00, -187500.02, -187500.02, -187500.02, 0.000, 0.000, 0.000, 22:56:58.386, 1541908618386
13, -72.44, 14701.05, 0.00, 0.00, 0.00, -187500.02, -187500.02, -187500.02, 0.000, 0.000, 0.000, 22:56:58.386, 1541908618386
14, 207.74, 15120.35, 0.00, 0.00, 0.00, -187500.02, -187500.02, -187500.02, 0.000, 0.000, 0.000, 22:56:58.386, 1541908618386
15, 68.87, 15194.18, 0.00, 0.00, 0.00, -187500.02, -187500.02, -187500.02, 0.000, 0.000, 0.000, 22:56:58.386, 1541908618386
16, -141.62, 14921.67, 0.00, 0.00, 0.00, -187500.02, -187500.02, -187500.02, 0.000, 0.000, 0.000, 22:56:58.386, 1541908618386
17, -129.44, 14690.55, 0.00, 0.00, 0.00, -187500.02, -187500.02, -187500.02, 0.098, 0.872, 0.476, 22:56:58.386, 1541908618386
