%OpenBCI Raw EEG Data
%Number of channels = 8
%Sample Rate = 250.0 Hz
%First Column = SampleIndex
%Last Column = Timestamp 
%Other Columns = EEG data in microvolts followed by Accel Data (in G) interleaved with Aux Data
0, 0.00, 0.00, 0.00, 0.00, 0.00, 0.00, 0.00, 0.00, 0.000, 0.000, 0.000, 20:52:10.873, 1541901130873
16, -187500.02, -187500.02, -187500.02, -182348.83, -184397.14, -187500.02, -185477.83, -187500.02, 0.010, 0.896, 0.292, 20:52:12.443, 1541901132443
17, -187500.02, -187500.02, -187500.02, -182127.06, -184173.66, -187500.02, -185251.67, -187500.02, 0.000, 0.000, 0.000, 20:52:12.443, 1541901132443
18, -187500.02, -187500.02, -187500.02, -181546.20, -183584.11, -187500.02, -184661.52, -187500.02, 0.000, 0.000, 0.000, 20:52:12.443, 1541901132443
19, -187500.02, -187500.02, -187500.02, -181761.67, -183804.89, -187500.02, -184884.45, -187500.02, 0.000, 0.000, 0.000, 20:52:12.443, 1541901132443
20, -187500.02, -187500.02, -187500.02, -182356.23, -184415.20, -187500.02, -185498.39, -187500.02, 0.000, 0.000, 0.000, 20:52:12.443, 1541901132443
21, -187500.02, -187500.02, -187500.02, -182186.20, -184245.06, -187500.02, -185325.81, -187500.02, 0.000, 0.000, 0.000, 20:52:12.443, 1541901132443
22, -187500.02, -187500.02, -187500.02, -181661.25, -183712.25, -187500.02, -184790.81, -187500.02, 0.000, 0.000, 0.000, 20:52:12.443, 1541901132443
23, -187500.02, -187500.02, -187500.02, -181615.77, -183666.20, -187500.02, -184745.30, -187500.02, 0.000, 0.000, 0.000, 20:52:12.444, 1541901132444
24, -187500.02, -187500.02, -187500.02, -182341.23, -184409.27, -187500.02, -185493.19, -187500.02, 0.000, 0.000, 0.000, 20:52:12.444, 1541901132444
25, -187500.02, -187500.02, -187500.02, -182230.34, -184299.16, -187500.02, -185381.20, -187500.02, 0.000, 0.000, 0.000, 20:52:12.444, 1541901132444
26, -187500.02, -187500.02, -187500.02, -181778.58, -183840.72, -187500.02, -184920.53, -187500.02, 0.014, 0.896, 0.292, 20:52:12.444, 1541901132444
27, -187500.02, -187500.02, -187500.02, -181496.30, -183554.22, -187500.02, -184635.02, -187500.02, 0.000, 0.000, 0.000, 20:52:12.444, 1541901132444
28, -187500.02, -187500.02, -187500.02, -182288.44, -184365.05, -187500.02, -185450.39, -187500.02, 0.000, 0.000, 0.000, 20:52:12.444, 1541901132444
29, -187500.02, -187500.02, -187500.02, -182275.19, -184355.73, -187500.02, -185440.17, -187500.02, 0.000, 0.000, 0.000, 20:52:12.444, 1541901132444
30, -187500.02, -187500.02, -187500.02, -181901.75, -183976.06, -187500.02, -185058.69, -187500.02, 0.000, 0.000, 0.000, 20:52:12.444, 1541901132444
31, -187500.02, -187500.02, -187500.02, -181443.30, -183509.52, -187500.02, -184592.09, -187500.02, 0.000, 0.000, 0.000, 20:52:12.445, 1541901132445
32, -187500.02, -187500.02, -187500.02, -182199.81, -184284.05, -187500.02, -185369.77, -187500.02, 0.000, 0.000, 0.000, 20:52:12.454, 1541901132454
33, -187500.02, -187500.02, -187500.02, -182313.30, -184403.66, -187500.02, -185490.02, -187500.02, 0.000, 0.000, 0.000, 20:52:12.456, 1541901132456
34, -187500.02, -187500.02, -187500.02, -182000.84, -184087.31, -187500.02, -185170.88, -187500.02, 0.000, 0.000, 0.000, 20:52:12.457, 1541901132457
35, -187500.02, -187500.02, -187500.02, -181441.22, -183517.52, -187500.02, -184600.80, -187500.02, 0.000, 0.000, 0.000, 20:52:12.458, 1541901132458
36, -187500.02, -187500.02, -187500.02, -182065.70, -184155.84, -187500.02, -185242.28, -187500.02, 0.012, 0.898, 0.290, 20:52:12.458, 1541901132458
37, -187500.02, -187500.02, -187500.02, -182346.63, -184447.27, -187500.02, -185535.98, -187500.02, 0.000, 0.000, 0.000, 20:52:12.458, 1541901132458
38, -187500.02, -187500.02, -187500.02, -182087.39, -184184.41, -187500.02, -185270.25, -187500.02, 0.000, 0.000, 0.000, 20:52:12.458, 1541901132458
39, -187500.02, -187500.02, -187500.02, -181493.05, -183579.67, -187500.02, -184666.13, -187500.02, 0.000, 0.000, 0.000, 20:52:12.458, 1541901132458
40, -187500.02, -187500.02, -187500.02, -181904.66, -184000.81, -187500.02, -185089.30, -187500.02, 0.000, 0.000, 0.000, 20:52:12.458, 1541901132458
41, -187500.02, -187500.02, -187500.02, -182363.27, -184472.20, -187500.02, -185563.84, -187500.02, 0.000, 0.000, 0.000, 20:52:12.458, 1541901132458
42, -187500.02, -187500.02, -187500.02, -182149.09, -184257.03, -187500.02, -185346.48, -187500.02, 0.000, 0.000, 0.000, 20:52:12.458, 1541901132458
43, -187500.02, -187500.02, -187500.02, -181578.39, -183677.33, -187500.02, -184766.08, -187500.02, 0.000, 0.000, 0.000, 20:52:12.458, 1541901132458
44, -187500.02, -187500.02, -187500.02, -181736.19, -183839.92, -187500.02, -184929.20, -187500.02, 0.000, 0.000, 0.000, 20:52:12.458, 1541901132458
45, -187500.02, -187500.02, -187500.02, -182369.42, -184490.63, -187500.02, -185583.23, -187500.02, 0.000, 0.000, 0.000, 20:52:12.459, 1541901132459
46, -187500.02, -187500.02, -187500.02, -182210.25, -184330.50, -187500.02, -185420.86, -187500.02, 0.014, 0.900, 0.288, 20:52:12.459, 1541901132459
47, -187500.02, -187500.02, -187500.02, -181697.61, -183809.67, -187500.02, -184898.92, -187500.02, 0.000, 0.000, 0.000, 20:52:12.459, 1541901132459
48, -187500.02, -187500.02, -187500.02, -181596.42, -183707.59, -187500.02, -184796.22, -187500.02, 0.000, 0.000, 0.000, 20:52:12.459, 1541901132459
49, -187500.02, -187500.02, -187500.02, -182348.31, -184477.59, -187500.02, -185570.80, -187500.02, 0.000, 0.000, 0.000, 20:52:12.459, 1541901132459
50, -187500.02, -187500.02, -187500.02, -182254.44, -184384.66, -187500.02, -185477.25, -187500.02, 0.000, 0.000, 0.000, 20:52:12.460, 1541901132460
51, -187500.02, -187500.02, -187500.02, -181815.59, -183940.03, -187500.02, -185030.91, -187500.02, 0.000, 0.000, 0.000, 20:52:12.460, 1541901132460
52, -187500.02, -187500.02, -187500.02, -181489.14, -183608.53, -187500.02, -184699.25, -187500.02, 0.000, 0.000, 0.000, 20:52:12.460, 1541901132460
53, -187500.02, -187500.02, -187500.02, -182287.88, -184425.88, -187500.02, -185519.98, -187500.02, 0.000, 0.000, 0.000, 20:52:12.460, 1541901132460
54, -187500.02, -187500.02, -187500.02, -182299.08, -184440.83, -187500.02, -185534.41, -187500.02, 0.000, 0.000, 0.000, 20:52:12.460, 1541901132460
55, -187500.02, -187500.02, -187500.02, -181933.66, -184069.88, -187500.02, -185161.86, -187500.02, 0.000, 0.000, 0.000, 20:52:12.460, 1541901132460
56, -187500.02, -187500.02, -187500.02, -181444.77, -183572.77, -187500.02, -184664.67, -187500.02, 0.014, 0.902, 0.288, 20:52:12.460, 1541901132460
57, -187500.02, -187500.02, -187500.02, -182182.17, -184326.14, -187500.02, -185421.03, -187500.02, 0.000, 0.000, 0.000, 20:52:12.460, 1541901132460
58, -187500.02, -187500.02, -187500.02, -182332.66, -184482.84, -187500.02, -185578.89, -187500.02, 0.000, 0.000, 0.000, 20:52:12.460, 1541901132460
59, -187500.02, -187500.02, -187500.02, -182028.59, -184175.08, -187500.02, -185268.34, -187500.02, 0.000, 0.000, 0.000, 20:52:12.460, 1541901132460
60, -187500.02, -187500.02, -187500.02, -181454.78, -183591.92, -187500.02, -184684.19, -187500.02, 0.000, 0.000, 0.000, 20:52:12.460, 1541901132460
61, -187500.02, -187500.02, -187500.02, -182040.92, -184190.59, -187500.02, -185286.03, -187500.02, 0.000, 0.000, 0.000, 20:52:12.460, 1541901132460
62, -187500.02, -187500.02, -187500.02, -182367.19, -184528.31, -187500.02, -185626.52, -187500.02, 0.000, 0.000, 0.000, 20:52:12.460, 1541901132460
63, -187500.02, -187500.02, -187500.02, -182114.88, -184274.14, -187500.02, -185369.30, -187500.02, 0.000, 0.000, 0.000, 20:52:12.461, 1541901132461
64, -187500.02, -187500.02, -187500.02, -181519.84, -183669.28, -187500.02, -184764.41, -187500.02, 0.000, 0.000, 0.000, 20:52:12.461, 1541901132461
65, -187500.02, -187500.02, -187500.02, -181874.19, -184031.77, -187500.02, -185128.86, -187500.02, 0.000, 0.000, 0.000, 20:52:12.461, 1541901132461
66, -187500.02, -187500.02, -187500.02, -182382.61, -184552.67, -187500.02, -185654.19, -187500.02, 0.016, 0.906, 0.288, 20:52:12.461, 1541901132461
67, -187500.02, -187500.02, -187500.02, -182178.31, -184345.97, -187500.02, -185445.73, -187500.02, 0.000, 0.000, 0.000, 20:52:12.461, 1541901132461
68, -187500.02, -187500.02, -187500.02, -181590.13, -183775.17, -187500.02, -184873.23, -187500.02, 0.000, 0.000, 0.000, 20:52:12.461, 1541901132461
69, -187500.02, -187500.02, -187500.02, -181601.39, -183867.66, -187500.02, -184967.14, -187500.02, 0.000, 0.000, 0.000, 20:52:12.461, 1541901132461
70, -187500.02, -187500.02, -187500.02, -182481.36, -184549.88, -187500.02, -185654.05, -187500.02, 0.000, 0.000, 0.000, 20:52:12.461, 1541901132461
71, -187500.02, -187500.02, -187500.02, -182372.19, -184401.44, -187500.02, -185503.30, -187500.02, 0.000, 0.000, 0.000, 20:52:12.461, 1541901132461
72, -187500.02, -187500.02, -187500.02, -181873.66, -183896.06, -187500.02, -184995.81, -187500.02, 0.000, 0.000, 0.000, 20:52:12.461, 1541901132461
73, -187500.02, -187500.02, -187500.02, -181710.22, -183730.14, -187500.02, -184829.86, -187500.02, 0.000, 0.000, 0.000, 20:52:12.461, 1541901132461
74, -187500.02, -187500.02, -187500.02, -182482.78, -184522.16, -187500.02, -185625.80, -187500.02, 0.000, 0.000, 0.000, 20:52:12.461, 1541901132461
75, -187500.02, -187500.02, -187500.02, -182409.83, -184450.92, -187500.02, -185553.77, -187500.02, 0.000, 0.000, 0.000, 20:52:12.462, 1541901132462
76, -187500.02, -187500.02, -187500.02, -181987.67, -184023.05, -187500.02, -185123.20, -187500.02, 0.018, 0.910, 0.286, 20:52:12.462, 1541901132462
77, -187500.02, -187500.02, -187500.02, -181615.31, -183645.33, -187500.02, -184744.02, -187500.02, 0.000, 0.000, 0.000, 20:52:12.462, 1541901132462
78, -187500.02, -187500.02, -187500.02, -182411.13, -184458.08, -187500.02, -185561.63, -187500.02, 0.000, 0.000, 0.000, 20:52:12.462, 1541901132462
79, -187500.02, -187500.02, -187500.02, -182454.13, -184505.28, -187500.02, -185610.13, -187500.02, 0.000, 0.000, 0.000, 20:52:12.462, 1541901132462
80, -187500.02, -187500.02, -187500.02, -182102.89, -184149.33, -187500.02, -185252.84, -187500.02, 0.000, 0.000, 0.000, 20:52:12.462, 1541901132462
81, -187500.02, -187500.02, -187500.02, -181587.33, -183623.73, -187500.02, -184726.92, -187500.02, 0.000, 0.000, 0.000, 20:52:12.462, 1541901132462
82, -187500.02, -187500.02, -187500.02, -182296.55, -184348.53, -187500.02, -185456.55, -187500.02, 0.000, 0.000, 0.000, 20:52:12.462, 1541901132462
83, -187500.02, -187500.02, -187500.02, -182489.33, -184549.55, -187500.02, -185658.64, -187500.02, 0.000, 0.000, 0.000, 20:52:12.462, 1541901132462
84, -187500.02, -187500.02, -187500.02, -182197.59, -184254.97, -187500.02, -185360.53, -187500.02, 0.000, 0.000, 0.000, 20:52:12.462, 1541901132462
85, -187500.02, -187500.02, -187500.02, -181613.30, -183661.23, -187500.02, -184765.64, -187500.02, 0.000, 0.000, 0.000, 20:52:12.462, 1541901132462
86, -187500.02, -187500.02, -187500.02, -182147.09, -184206.58, -187500.02, -185313.66, -187500.02, 0.000, 0.000, 0.000, 20:52:12.462, 1541901132462
87, -187500.02, -187500.02, -187500.02, -182520.78, -184591.41, -187500.02, -185701.73, -187500.02, 0.014, 0.904, 0.288, 20:52:12.462, 1541901132462
88, -187500.02, -187500.02, -187500.02, -182278.84, -184347.91, -187500.02, -185454.55, -187500.02, 0.000, 0.000, 0.000, 20:52:12.463, 1541901132463
89, -187500.02, -187500.02, -187500.02, -181686.47, -183745.42, -187500.02, -184851.61, -187500.02, 0.000, 0.000, 0.000, 20:52:12.463, 1541901132463
90, -187500.02, -187500.02, -187500.02, -181976.75, -184042.22, -187500.02, -185150.83, -187500.02, 0.000, 0.000, 0.000, 20:52:12.463, 1541901132463
91, -187500.02, -187500.02, -187500.02, -182528.98, -184609.69, -187500.02, -185722.63, -187500.02, 0.000, 0.000, 0.000, 20:52:12.463, 1541901132463
92, -187500.02, -187500.02, -187500.02, -182336.67, -184415.97, -187500.02, -185525.73, -187500.02, 0.000, 0.000, 0.000, 20:52:12.463, 1541901132463
93, -187500.02, -187500.02, -187500.02, -181787.27, -183858.27, -187500.02, -184966.47, -187500.02, 0.000, 0.000, 0.000, 20:52:12.463, 1541901132463
94, -187500.02, -187500.02, -187500.02, -181815.98, -183889.20, -187500.02, -184997.78, -187500.02, 0.000, 0.000, 0.000, 20:52:12.463, 1541901132463
95, -187500.02, -187500.02, -187500.02, -182520.92, -184611.33, -187500.02, -185724.80, -187500.02, 0.000, 0.000, 0.000, 20:52:12.463, 1541901132463
96, -187500.02, -187500.02, -187500.02, -182389.36, -184479.64, -187500.02, -185592.36, -187500.02, 0.000, 0.000, 0.000, 20:52:12.463, 1541901132463
97, -187500.02, -187500.02, -187500.02, -181907.81, -183991.81, -187500.02, -185102.41, -187500.02, 0.012, 0.902, 0.288, 20:52:12.463, 1541901132463
98, -187500.02, -187500.02, -187500.02, -181687.42, -183767.03, -187500.02, -184878.14, -187500.02, 0.000, 0.000, 0.000, 20:52:12.463, 1541901132463
99, -187500.02, -187500.02, -187500.02, -182476.27, -184574.64, -187500.02, -185689.84, -187500.02, 0.000, 0.000, 0.000, 20:52:12.463, 1541901132463
100, -187500.02, -187500.02, -187500.02, -182429.13, -184530.92, -187500.02, -185645.17, -187500.02, 0.000, 0.000, 0.000, 20:52:12.463, 1541901132463
101, -187500.02, -187500.02, -187500.02, -182026.92, -184123.81, -187500.02, -185234.95, -187500.02, 0.000, 0.000, 0.000, 20:52:12.464, 1541901132464
102, -187500.02, -187500.02, -187500.02, -181610.80, -183701.19, -187500.02, -184811.34, -187500.02, 0.000, 0.000, 0.000, 20:52:12.464, 1541901132464
103, -187500.02, -187500.02, -187500.02, -182391.72, -184500.09, -187500.02, -185614.98, -187500.02, 0.000, 0.000, 0.000, 20:52:12.464, 1541901132464
104, -187500.02, -187500.02, -187500.02, -182468.55, -184580.83, -187500.02, -185697.59, -187500.02, 0.000, 0.000, 0.000, 20:52:12.464, 1541901132464
105, -187500.02, -187500.02, -187500.02, -182132.67, -184240.75, -187500.02, -185354.41, -187500.02, 0.000, 0.000, 0.000, 20:52:12.464, 1541901132464
106, -187500.02, -187500.02, -187500.02, -181591.69, -183690.78, -187500.02, -184803.53, -187500.02, 0.000, 0.000, 0.000, 20:52:12.464, 1541901132464
107, -187500.02, -187500.02, -187500.02, -182262.72, -184376.19, -187500.02, -185492.56, -187500.02, 0.004, 0.900, 0.286, 20:52:12.464, 1541901132464
108, -187500.02, -187500.02, -187500.02, -182498.67, -184620.69, -187500.02, -185739.77, -187500.02, 0.000, 0.000, 0.000, 20:52:12.464, 1541901132464
109, -187500.02, -187500.02, -187500.02, -182223.06, -184341.56, -187500.02, -185457.95, -187500.02, 0.000, 0.000, 0.000, 20:52:12.464, 1541901132464
110, -187500.02, -187500.02, -187500.02, -181632.11, -183740.52, -187500.02, -184855.94, -187500.02, 0.000, 0.000, 0.000, 20:52:12.465, 1541901132465
111, -187500.02, -187500.02, -187500.02, -182107.23, -184226.94, -187500.02, -185344.13, -187500.02, 0.000, 0.000, 0.000, 20:52:12.465, 1541901132465
112, -187500.02, -187500.02, -187500.02, -182527.73, -184660.23, -187500.02, -185780.70, -187500.02, 0.000, 0.000, 0.000, 20:52:12.465, 1541901132465
113, -187500.02, -187500.02, -187500.02, -182299.39, -184428.23, -187500.02, -185546.83, -187500.02, 0.000, 0.000, 0.000, 20:52:12.465, 1541901132465
114, -187500.02, -187500.02, -187500.02, -181716.53, -183835.69, -187500.02, -184952.25, -187500.02, 0.000, 0.000, 0.000, 20:52:12.465, 1541901132465
115, -187500.02, -187500.02, -187500.02, -181940.63, -184066.31, -187500.02, -185183.39, -187500.02, 0.000, 0.000, 0.000, 20:52:12.465, 1541901132465
116, -187500.02, -187500.02, -187500.02, -182534.44, -184677.14, -187500.02, -185798.20, -187500.02, 0.000, 0.000, 0.000, 20:52:12.465, 1541901132465
117, -187500.02, -187500.02, -187500.02, -182357.13, -184498.83, -187500.02, -185618.09, -187500.02, 0.008, 0.906, 0.288, 20:52:12.466, 1541901132466
118, -187500.02, -187500.02, -187500.02, -181825.69, -183958.58, -187500.02, -185076.63, -187500.02, 0.000, 0.000, 0.000, 20:52:12.466, 1541901132466
119, -187500.02, -187500.02, -187500.02, -181787.98, -183920.78, -187500.02, -185039.98, -187500.02, 0.000, 0.000, 0.000, 20:52:12.466, 1541901132466
120, -187500.02, -187500.02, -187500.02, -182520.11, -184670.02, -187500.02, -185795.19, -187500.02, 0.000, 0.000, 0.000, 20:52:12.466, 1541901132466
121, -187500.02, -187500.02, -187500.02, -182405.36, -184556.45, -187500.02, -185679.41, -187500.02, 0.000, 0.000, 0.000, 20:52:12.466, 1541901132466
122, -187500.02, -187500.02, -187500.02, -181944.78, -184089.77, -187500.02, -185210.39, -187500.02, 0.000, 0.000, 0.000, 20:52:12.466, 1541901132466
123, -187500.02, -187500.02, -187500.02, -181669.23, -183809.41, -187500.02, -184929.98, -187500.02, 0.000, 0.000, 0.000, 20:52:12.466, 1541901132466
124, -187500.02, -187500.02, -187500.02, -182466.14, -184625.25, -187500.02, -185749.88, -187500.02, 0.000, 0.000, 0.000, 20:52:12.466, 1541901132466
125, -187500.02, -187500.02, -187500.02, -182445.48, -184607.47, -187500.02, -185732.63, -187500.02, 0.000, 0.000, 0.000, 20:52:12.466, 1541901132466
126, -187500.02, -187500.02, -187500.02, -182059.16, -184215.81, -187500.02, -185337.50, -187500.02, 0.000, 0.000, 0.000, 20:52:12.466, 1541901132466
127, -187500.02, -187500.02, -187500.02, -181606.02, -183756.17, -187500.02, -184877.23, -187500.02, 0.010, 0.896, 0.292, 20:52:12.466, 1541901132466
128, -187500.02, -187500.02, -187500.02, -182372.45, -184539.03, -187500.02, -185665.08, -187500.02, 0.000, 0.000, 0.000, 20:52:12.466, 1541901132466
129, -187500.02, -187500.02, -187500.02, -182485.06, -184657.05, -187500.02, -185783.98, -187500.02, 0.000, 0.000, 0.000, 20:52:12.467, 1541901132467
130, -187500.02, -187500.02, -187500.02, -182162.27, -184330.72, -187500.02, -185454.77, -187500.02, 0.000, 0.000, 0.000, 20:52:12.467, 1541901132467
131, -187500.02, -187500.02, -187500.02, -181606.52, -183766.00, -187500.02, -184889.33, -187500.02, 0.000, 0.000, 0.000, 20:52:12.467, 1541901132467
132, -187500.02, -187500.02, -187500.02, -182237.72, -184410.80, -187500.02, -185538.56, -187500.02, 0.000, 0.000, 0.000, 20:52:12.467, 1541901132467
133, -187500.02, -187500.02, -187500.02, -182518.14, -184701.48, -187500.02, -185831.53, -187500.02, 0.000, 0.000, 0.000, 20:52:12.467, 1541901132467
134, -187500.02, -187500.02, -187500.02, -182249.13, -184429.42, -187500.02, -185556.28, -187500.02, 0.000, 0.000, 0.000, 20:52:12.467, 1541901132467
135, -187500.02, -187500.02, -187500.02, -181655.06, -183825.34, -187500.02, -184950.98, -187500.02, 0.000, 0.000, 0.000, 20:52:12.467, 1541901132467
136, -187500.02, -187500.02, -187500.02, -182075.88, -184255.73, -187500.02, -185383.50, -187500.02, 0.000, 0.000, 0.000, 20:52:12.925, 1541901132925
137, -187500.02, -187500.02, -187500.02, -182541.11, -184733.25, -187500.02, -185865.81, -187500.02, 0.018, 0.894, 0.290, 20:52:12.925, 1541901132925
138, -187500.02, -187500.02, -187500.02, -182319.73, -184508.61, -187500.02, -185638.58, -187500.02, 0.000, 0.000, 0.000, 20:52:12.926, 1541901132926
139, -187500.02, -187500.02, -187500.02, -181744.53, -183924.55, -187500.02, -185052.52, -187500.02, 0.000, 0.000, 0.000, 20:52:12.926, 1541901132926
140, -187500.02, -187500.02, -187500.02, -181911.14, -184095.02, -187500.02, -185224.72, -187500.02, 0.000, 0.000, 0.000, 20:52:12.927, 1541901132927
141, -187500.02, -187500.02, -187500.02, -182547.78, -184749.70, -187500.02, -185883.67, -187500.02, 0.000, 0.000, 0.000, 20:52:12.927, 1541901132927
142, -187500.02, -187500.02, -187500.02, -182378.34, -184579.83, -187500.02, -185712.13, -187500.02, 0.000, 0.000, 0.000, 20:52:12.927, 1541901132927
143, -187500.02, -187500.02, -187500.02, -181858.30, -184051.75, -187500.02, -185181.77, -187500.02, 0.000, 0.000, 0.000, 20:52:12.927, 1541901132927
144, -187500.02, -187500.02, -187500.02, -181763.08, -183954.73, -187500.02, -185085.67, -187500.02, 0.000, 0.000, 0.000, 20:52:12.927, 1541901132927
145, -187500.02, -187500.02, -187500.02, -182520.03, -184730.09, -187500.02, -185866.50, -187500.02, 0.000, 0.000, 0.000, 20:52:12.927, 1541901132927
146, -187500.02, -187500.02, -187500.02, -182422.44, -184633.84, -187500.02, -185768.45, -187500.02, 0.000, 0.000, 0.000, 20:52:12.928, 1541901132928
147, -187500.02, -187500.02, -187500.02, -181974.53, -184180.20, -187500.02, -185311.02, -187500.02, 0.020, 0.902, 0.292, 20:52:12.928, 1541901132928
148, -187500.02, -187500.02, -187500.02, -181654.16, -183855.31, -187500.02, -184984.84, -187500.02, 0.000, 0.000, 0.000, 20:52:12.929, 1541901132929
149, -187500.02, -187500.02, -187500.02, -182455.39, -184675.88, -187500.02, -185810.77, -187500.02, 0.000, 0.000, 0.000, 20:52:12.931, 1541901132931
150, -187500.02, -187500.02, -187500.02, -182462.30, -184686.13, -187500.02, -185821.31, -187500.02, 0.000, 0.000, 0.000, 20:52:12.931, 1541901132931
151, -187500.02, -187500.02, -187500.02, -182084.28, -184303.22, -187500.02, -185434.84, -187500.02, 0.000, 0.000, 0.000, 20:52:12.931, 1541901132931
152, -187500.02, -187500.02, -187500.02, -181601.64, -183811.64, -187500.02, -184942.44, -187500.02, 0.000, 0.000, 0.000, 20:52:12.931, 1541901132931
153, -187500.02, -187500.02, -187500.02, -182345.95, -184571.56, -187500.02, -185706.91, -187500.02, 0.000, 0.000, 0.000, 20:52:12.932, 1541901132932
154, -187500.02, -187500.02, -187500.02, -182495.92, -184727.70, -187500.02, -185865.77, -187500.02, 0.000, 0.000, 0.000, 20:52:12.932, 1541901132932
155, -187500.02, -187500.02, -187500.02, -182182.33, -184410.30, -187500.02, -185545.28, -187500.02, 0.000, 0.000, 0.000, 20:52:12.932, 1541901132932
156, -187500.02, -187500.02, -187500.02, -181612.75, -183832.03, -187500.02, -184964.86, -187500.02, 0.000, 0.000, 0.000, 20:52:12.932, 1541901132932
157, -187500.02, -187500.02, -187500.02, -182205.92, -184438.59, -187500.02, -185574.84, -187500.02, 0.000, 0.000, 0.000, 20:52:12.932, 1541901132932
158, -187500.02, -187500.02, -187500.02, -182533.41, -184776.75, -187500.02, -185917.38, -187500.02, 0.018, 0.900, 0.274, 20:52:12.932, 1541901132932
159, -187500.02, -187500.02, -187500.02, -182269.00, -184511.20, -187500.02, -185647.06, -187500.02, 0.000, 0.000, 0.000, 20:52:12.932, 1541901132932
160, -187500.02, -187500.02, -187500.02, -181674.81, -183906.84, -187500.02, -185041.50, -187500.02, 0.000, 0.000, 0.000, 20:52:12.932, 1541901132932
161, -187500.02, -187500.02, -187500.02, -182043.11, -184281.39, -187500.02, -185419.42, -187500.02, 0.000, 0.000, 0.000, 20:52:12.932, 1541901132932
162, -187500.02, -187500.02, -187500.02, -182552.28, -184805.17, -187500.02, -185948.09, -187500.02, 0.000, 0.000, 0.000, 20:52:12.932, 1541901132932
163, -187500.02, -187500.02, -187500.02, -182333.59, -184585.53, -187500.02, -185724.97, -187500.02, 0.000, 0.000, 0.000, 20:52:12.933, 1541901132933
164, -187500.02, -187500.02, -187500.02, -181764.67, -184007.41, -187500.02, -185144.45, -187500.02, 0.000, 0.000, 0.000, 20:52:12.933, 1541901132933
165, -187500.02, -187500.02, -187500.02, -181873.19, -184118.55, -187500.02, -185257.55, -187500.02, 0.000, 0.000, 0.000, 20:52:12.933, 1541901132933
166, -187500.02, -187500.02, -187500.02, -182547.72, -184810.50, -187500.02, -185955.95, -187500.02, 0.000, 0.000, 0.000, 20:52:12.933, 1541901132933
167, -187500.02, -187500.02, -187500.02, -182389.52, -184651.11, -187500.02, -185793.70, -187500.02, 0.000, 0.000, 0.000, 20:52:12.933, 1541901132933
168, -187500.02, -187500.02, -187500.02, -181881.55, -184134.42, -187500.02, -185274.63, -187500.02, 0.020, 0.900, 0.284, 20:52:12.933, 1541901132933
169, -187500.02, -187500.02, -187500.02, -181732.17, -183982.72, -187500.02, -185121.88, -187500.02, 0.000, 0.000, 0.000, 20:52:12.934, 1541901132934
170, -187500.02, -187500.02, -187500.02, -182513.31, -184782.22, -187500.02, -185927.22, -187500.02, 0.000, 0.000, 0.000, 20:52:12.934, 1541901132934
171, -187500.02, -187500.02, -187500.02, -182434.31, -184704.91, -187500.02, -185848.83, -187500.02, 0.000, 0.000, 0.000, 20:52:12.934, 1541901132934
172, -187500.02, -187500.02, -187500.02, -181997.94, -184263.28, -187500.02, -185404.30, -187500.02, 0.000, 0.000, 0.000, 20:52:12.934, 1541901132934
173, -187500.02, -187500.02, -187500.02, -181637.78, -183898.38, -187500.02, -185038.53, -187500.02, 0.000, 0.000, 0.000, 20:52:12.934, 1541901132934
174, -187500.02, -187500.02, -187500.02, -182441.34, -184720.05, -187500.02, -185866.45, -187500.02, 0.000, 0.000, 0.000, 20:52:12.934, 1541901132934
175, -187500.02, -187500.02, -187500.02, -182479.13, -184762.06, -187500.02, -185908.34, -187500.02, 0.000, 0.000, 0.000, 20:52:12.934, 1541901132934
176, -187500.02, -187500.02, -187500.02, -182112.44, -184390.86, -187500.02, -185533.20, -187500.02, 0.000, 0.000, 0.000, 20:52:12.936, 1541901132936
177, -187500.02, -187500.02, -187500.02, -181600.91, -183871.20, -187500.02, -185012.36, -187500.02, 0.000, 0.000, 0.000, 20:52:12.937, 1541901132937
178, -187500.02, -187500.02, -187500.02, -182320.09, -184606.53, -187500.02, -185752.42, -187500.02, 0.014, 0.902, 0.288, 20:52:12.937, 1541901132937
179, -187500.02, -187500.02, -187500.02, -182515.55, -184809.80, -187500.02, -185957.77, -187500.02, 0.000, 0.000, 0.000, 20:52:12.937, 1541901132937
180, -187500.02, -187500.02, -187500.02, -182209.72, -184501.16, -187500.02, -185644.91, -187500.02, 0.000, 0.000, 0.000, 20:52:12.937, 1541901132937
181, -187500.02, -187500.02, -187500.02, -181630.05, -183911.23, -187500.02, -185054.53, -187500.02, 0.000, 0.000, 0.000, 20:52:12.949, 1541901132949
182, -187500.02, -187500.02, -187500.02, -182171.83, -184464.52, -187500.02, -185612.30, -187500.02, 0.000, 0.000, 0.000, 20:52:12.952, 1541901132952
183, -187500.02, -187500.02, -187500.02, -182547.67, -184851.30, -187500.02, -186004.11, -187500.02, 0.000, 0.000, 0.000, 20:52:12.952, 1541901132952
184, -187500.02, -187500.02, -187500.02, -182294.14, -184595.25, -187500.02, -185743.33, -187500.02, 0.000, 0.000, 0.000, 20:52:12.953, 1541901132953
185, -187500.02, -187500.02, -187500.02, -181702.78, -183994.88, -187500.02, -185139.92, -187500.02, 0.000, 0.000, 0.000, 20:52:12.954, 1541901132954
186, -187500.02, -187500.02, -187500.02, -182005.78, -184304.19, -187500.02, -185452.31, -187500.02, 0.000, 0.000, 0.000, 20:52:12.954, 1541901132954
187, -187500.02, -187500.02, -187500.02, -182565.31, -184879.08, -187500.02, -186032.47, -187500.02, 0.000, 0.000, 0.000, 20:52:12.954, 1541901132954
188, -187500.02, -187500.02, -187500.02, -182363.34, -184675.94, -187500.02, -185825.78, -187500.02, 0.014, 0.908, 0.290, 20:52:12.954, 1541901132954
189, -187500.02, -187500.02, -187500.02, -181810.92, -184115.81, -187500.02, -185263.23, -187500.02, 0.000, 0.000, 0.000, 20:52:12.954, 1541901132954
190, -187500.02, -187500.02, -187500.02, -181850.80, -184156.67, -187500.02, -185305.75, -187500.02, 0.000, 0.000, 0.000, 20:52:12.954, 1541901132954
191, -187500.02, -187500.02, -187500.02, -182562.20, -184886.67, -187500.02, -186041.81, -187500.02, 0.000, 0.000, 0.000, 20:52:12.954, 1541901132954
192, -187500.02, -187500.02, -187500.02, -182423.91, -184748.47, -187500.02, -185901.11, -187500.02, 0.000, 0.000, 0.000, 20:52:12.955, 1541901132955
193, -187500.02, -187500.02, -187500.02, -181935.70, -184252.02, -187500.02, -185401.88, -187500.02, 0.000, 0.000, 0.000, 20:52:12.955, 1541901132955
194, -187500.02, -187500.02, -187500.02, -181727.36, -184039.92, -187500.02, -185190.25, -187500.02, 0.000, 0.000, 0.000, 20:52:12.955, 1541901132955
195, -187500.02, -187500.02, -187500.02, -182524.88, -184856.20, -187500.02, -186012.53, -187500.02, 0.000, 0.000, 0.000, 20:52:12.955, 1541901132955
196, -187500.02, -187500.02, -187500.02, -182475.03, -184809.84, -187500.02, -185963.98, -187500.02, 0.000, 0.000, 0.000, 20:52:12.955, 1541901132955
197, -187500.02, -187500.02, -187500.02, -182060.14, -184389.02, -187500.02, -185540.58, -187500.02, 0.000, 0.000, 0.000, 20:52:12.955, 1541901132955
198, -187500.02, -187500.02, -187500.02, -181654.78, -183976.05, -187500.02, -185127.05, -187500.02, 0.016, 0.904, 0.284, 20:52:12.955, 1541901132955
199, -187500.02, -187500.02, -187500.02, -182443.36, -184783.47, -187500.02, -185939.97, -187500.02, 0.000, 0.000, 0.000, 20:52:12.955, 1541901132955
200, -187500.02, -187500.02, -187500.02, -182516.61, -184861.53, -187500.02, -186018.30, -187500.02, 0.000, 0.000, 0.000, 20:52:12.955, 1541901132955
201, -187500.02, -187500.02, -187500.02, -182166.13, -184505.28, -187500.02, -185658.05, -187500.02, 0.000, 0.000, 0.000, 20:52:12.955, 1541901132955
202, -187500.02, -187500.02, -187500.02, -181630.58, -183959.64, -187500.02, -185111.13, -187500.02, 0.000, 0.000, 0.000, 20:52:12.955, 1541901132955
203, -187500.02, -187500.02, -187500.02, -182313.11, -184656.94, -187500.02, -185814.50, -187500.02, 0.000, 0.000, 0.000, 20:52:12.956, 1541901132956
204, -187500.02, -187500.02, -187500.02, -182551.56, -184905.16, -187500.02, -186066.13, -187500.02, 0.000, 0.000, 0.000, 20:52:12.956, 1541901132956
205, -187500.02, -187500.02, -187500.02, -182260.39, -184611.67, -187500.02, -185767.94, -187500.02, 0.000, 0.000, 0.000, 20:52:12.956, 1541901132956
206, -187500.02, -187500.02, -187500.02, -181670.77, -184012.98, -187500.02, -185166.42, -187500.02, 0.000, 0.000, 0.000, 20:52:12.956, 1541901132956
207, -187500.02, -187500.02, -187500.02, -182159.69, -184512.22, -187500.02, -185669.44, -187500.02, 0.000, 0.000, 0.000, 20:52:12.956, 1541901132956
208, -187500.02, -187500.02, -187500.02, -182581.09, -184946.38, -187500.02, -186108.59, -187500.02, 0.012, 0.902, 0.288, 20:52:12.956, 1541901132956
209, -187500.02, -187500.02, -187500.02, -182341.53, -184703.41, -187500.02, -185862.39, -187500.02, 0.000, 0.000, 0.000, 20:52:12.956, 1541901132956
210, -187500.02, -187500.02, -187500.02, -181755.95, -184108.39, -187500.02, -185265.25, -187500.02, 0.000, 0.000, 0.000, 20:52:12.956, 1541901132956
211, -187500.02, -187500.02, -187500.02, -181998.31, -184355.48, -187500.02, -185514.02, -187500.02, 0.000, 0.000, 0.000, 20:52:12.956, 1541901132956
212, -187500.02, -187500.02, -187500.02, -182600.72, -184973.86, -187500.02, -186139.08, -187500.02, 0.000, 0.000, 0.000, 20:52:12.956, 1541901132956
213, -187500.02, -187500.02, -187500.02, -182415.53, -184787.47, -187500.02, -185949.56, -187500.02, 0.000, 0.000, 0.000, 20:52:12.956, 1541901132956
214, -187500.02, -187500.02, -187500.02, -181877.88, -184241.48, -187500.02, -185400.53, -187500.02, 0.000, 0.000, 0.000, 20:52:12.956, 1541901132956
215, -187500.02, -187500.02, -187500.02, -181850.19, -184214.06, -187500.02, -185373.38, -187500.02, 0.000, 0.000, 0.000, 20:52:12.957, 1541901132957
216, -187500.02, -187500.02, -187500.02, -182587.02, -184969.78, -187500.02, -186135.64, -187500.02, 0.000, 0.000, 0.000, 20:52:12.957, 1541901132957
217, -187500.02, -187500.02, -187500.02, -182467.72, -184850.03, -187500.02, -186014.39, -187500.02, 0.000, 0.000, 0.000, 20:52:12.957, 1541901132957
218, -187500.02, -187500.02, -187500.02, -181998.97, -184374.53, -187500.02, -185534.38, -187500.02, 0.012, 0.902, 0.286, 20:52:12.957, 1541901132957
219, -187500.02, -187500.02, -187500.02, -181733.00, -184104.19, -187500.02, -185263.34, -187500.02, 0.000, 0.000, 0.000, 20:52:12.957, 1541901132957
220, -187500.02, -187500.02, -187500.02, -182537.30, -184927.91, -187500.02, -186093.98, -187500.02, 0.000, 0.000, 0.000, 20:52:12.957, 1541901132957
221, -187500.02, -187500.02, -187500.02, -182516.22, -184909.56, -187500.02, -186075.25, -187500.02, 0.000, 0.000, 0.000, 20:52:12.957, 1541901132957
222, -187500.02, -187500.02, -187500.02, -182122.36, -184509.70, -187500.02, -185671.48, -187500.02, 0.000, 0.000, 0.000, 20:52:12.957, 1541901132957
223, -187500.02, -187500.02, -187500.02, -181673.83, -184051.98, -187500.02, -185212.41, -187500.02, 0.000, 0.000, 0.000, 20:52:12.957, 1541901132957
224, -187500.02, -187500.02, -187500.02, -182446.48, -184842.80, -187500.02, -186008.44, -187500.02, 0.000, 0.000, 0.000, 20:52:12.957, 1541901132957
225, -187500.02, -187500.02, -187500.02, -182557.63, -184960.20, -187500.02, -186127.19, -187500.02, 0.000, 0.000, 0.000, 20:52:12.958, 1541901132958
226, -187500.02, -187500.02, -187500.02, -182228.83, -184626.61, -187500.02, -185790.44, -187500.02, 0.000, 0.000, 0.000, 20:52:12.958, 1541901132958
227, -187500.02, -187500.02, -187500.02, -181671.42, -184059.48, -187500.02, -185221.66, -187500.02, 0.000, 0.000, 0.000, 20:52:12.958, 1541901132958
228, -187500.02, -187500.02, -187500.02, -182311.53, -184713.83, -187500.02, -185880.94, -187500.02, 0.000, 0.000, 0.000, 20:52:12.958, 1541901132958
229, -187500.02, -187500.02, -187500.02, -182594.34, -185007.11, -187500.02, -186178.48, -187500.02, 0.012, 0.904, 0.286, 20:52:12.958, 1541901132958
230, -187500.02, -187500.02, -187500.02, -182319.73, -184730.34, -187500.02, -185897.80, -187500.02, 0.000, 0.000, 0.000, 20:52:12.958, 1541901132958
231, -187500.02, -187500.02, -187500.02, -181725.64, -184125.63, -187500.02, -185290.61, -187500.02, 0.000, 0.000, 0.000, 20:52:12.958, 1541901132958
232, -187500.02, -187500.02, -187500.02, -182149.55, -184558.38, -187500.02, -185727.02, -187500.02, 0.000, 0.000, 0.000, 20:52:12.958, 1541901132958
233, -187500.02, -187500.02, -187500.02, -182614.78, -185037.95, -187500.02, -186212.28, -187500.02, 0.000, 0.000, 0.000, 20:52:12.959, 1541901132959
234, -187500.02, -187500.02, -187500.02, -182389.98, -184811.61, -187500.02, -185981.19, -187500.02, 0.000, 0.000, 0.000, 20:52:12.959, 1541901132959
235, -187500.02, -187500.02, -187500.02, -181813.98, -184225.44, -187500.02, -185392.09, -187500.02, 0.000, 0.000, 0.000, 20:52:12.959, 1541901132959
236, -187500.02, -187500.02, -187500.02, -181980.45, -184394.94, -187500.02, -185563.11, -187500.02, 0.000, 0.000, 0.000, 20:52:12.959, 1541901132959
237, -187500.02, -187500.02, -187500.02, -182618.58, -185050.91, -187500.02, -186226.28, -187500.02, 0.000, 0.000, 0.000, 20:52:12.959, 1541901132959
238, -187500.02, -187500.02, -187500.02, -182449.55, -184881.73, -187500.02, -186053.25, -187500.02, 0.000, 0.000, 0.000, 20:52:12.959, 1541901132959
239, -187500.02, -187500.02, -187500.02, -181931.14, -184354.88, -187500.02, -185523.03, -187500.02, 0.016, 0.898, 0.284, 20:52:12.959, 1541901132959
240, -187500.02, -187500.02, -187500.02, -181835.95, -184257.36, -187500.02, -185425.91, -187500.02, 0.000, 0.000, 0.000, 20:52:12.959, 1541901132959
241, -187500.02, -187500.02, -187500.02, -182594.80, -185034.66, -187500.02, -186211.02, -187500.02, 0.000, 0.000, 0.000, 20:52:12.959, 1541901132959
242, -187500.02, -187500.02, -187500.02, -182499.39, -184940.19, -187500.02, -186114.77, -187500.02, 0.000, 0.000, 0.000, 20:52:12.959, 1541901132959
243, -187500.02, -187500.02, -187500.02, -182052.92, -184487.45, -187500.02, -185658.02, -187500.02, 0.000, 0.000, 0.000, 20:52:12.960, 1541901132960
244, -187500.02, -187500.02, -187500.02, -181730.73, -184159.69, -187500.02, -185328.75, -187500.02, 0.000, 0.000, 0.000, 20:52:12.960, 1541901132960
245, -187500.02, -187500.02, -187500.02, -182532.75, -184980.70, -187500.02, -186157.44, -187500.02, 0.000, 0.000, 0.000, 20:52:12.960, 1541901132960
246, -187500.02, -187500.02, -187500.02, -182543.14, -184993.94, -187500.02, -186172.34, -187500.02, 0.000, 0.000, 0.000, 20:52:12.960, 1541901132960
247, -187500.02, -187500.02, -187500.02, -182170.20, -184615.14, -187500.02, -185788.66, -187500.02, 0.000, 0.000, 0.000, 20:52:12.960, 1541901132960
248, -187500.02, -187500.02, -187500.02, -181684.41, -184120.61, -187500.02, -185291.69, -187500.02, 0.000, 0.000, 0.000, 20:52:12.960, 1541901132960
249, -187500.02, -187500.02, -187500.02, -182425.08, -184877.64, -187500.02, -186055.27, -187500.02, 0.014, 0.900, 0.292, 20:52:12.960, 1541901132960
250, -187500.02, -187500.02, -187500.02, -182576.59, -185037.22, -187500.02, -186217.23, -187500.02, 0.000, 0.000, 0.000, 20:52:12.960, 1541901132960
251, -187500.02, -187500.02, -187500.02, -182264.77, -184721.36, -187500.02, -185897.11, -187500.02, 0.000, 0.000, 0.000, 20:52:12.960, 1541901132960
252, -187500.02, -187500.02, -187500.02, -181633.44, -184136.25, -187500.02, -185309.23, -187500.02, 0.000, 0.000, 0.000, 20:52:12.960, 1541901132960
253, -187500.02, -187500.02, -187500.02, -182236.16, -184730.25, -187500.02, -185908.08, -187500.02, 0.000, 0.000, 0.000, 20:52:12.961, 1541901132961
254, -187500.02, -187500.02, -187500.02, -182721.73, -185066.69, -187500.02, -186249.17, -187500.02, 0.000, 0.000, 0.000, 20:52:12.961, 1541901132961
255, -187500.02, -187500.02, -187500.02, -182467.86, -184806.58, -187500.02, -185984.67, -187500.02, 0.000, 0.000, 0.000, 20:52:12.961, 1541901132961
0, -187500.02, -187500.02, -187500.02, -181874.17, -184203.02, -187500.02, -185378.34, -187500.02, 0.000, 0.000, 0.000, 20:52:12.961, 1541901132961
1, -187500.02, -187500.02, -187500.02, -182233.00, -184569.55, -187500.02, -185747.11, -187500.02, 0.000, 0.000, 0.000, 20:52:13.404, 1541901133404
2, -187500.02, -187500.02, -187500.02, -182743.92, -185095.17, -187500.02, -186279.31, -187500.02, 0.000, 0.000, 0.000, 20:52:13.405, 1541901133405
3, -187500.02, -187500.02, -187500.02, -182536.28, -184885.89, -187500.02, -186066.55, -187500.02, 0.010, 0.898, 0.298, 20:52:13.405, 1541901133405
4, -187500.02, -187500.02, -187500.02, -181972.70, -184314.28, -187500.02, -185491.17, -187500.02, 0.000, 0.000, 0.000, 20:52:13.406, 1541901133406
5, -187500.02, -187500.02, -187500.02, -182071.53, -184416.17, -187500.02, -185593.72, -187500.02, 0.000, 0.000, 0.000, 20:52:13.406, 1541901133406
6, -187500.02, -187500.02, -187500.02, -182746.06, -185107.66, -187500.02, -186293.56, -187500.02, 0.000, 0.000, 0.000, 20:52:13.406, 1541901133406
7, -187500.02, -187500.02, -187500.02, -182594.66, -184956.48, -187500.02, -186138.77, -187500.02, 0.000, 0.000, 0.000, 20:52:13.406, 1541901133406
8, -187500.02, -187500.02, -187500.02, -182093.83, -184448.52, -187500.02, -185626.30, -187500.02, 0.000, 0.000, 0.000, 20:52:13.407, 1541901133407
9, -187500.02, -187500.02, -187500.02, -181934.30, -184286.17, -187500.02, -185463.89, -187500.02, 0.000, 0.000, 0.000, 20:52:13.407, 1541901133407
10, -187500.02, -187500.02, -187500.02, -182711.52, -185082.61, -187500.02, -186269.17, -187500.02, 0.000, 0.000, 0.000, 20:52:13.407, 1541901133407
11, -187500.02, -187500.02, -187500.02, -182639.61, -185012.36, -187500.02, -186198.50, -187500.02, 0.000, 0.000, 0.000, 20:52:13.407, 1541901133407
12, -187500.02, -187500.02, -187500.02, -182216.36, -184583.14, -187500.02, -185765.16, -187500.02, 0.000, 0.000, 0.000, 20:52:13.408, 1541901133408
13, -187500.02, -187500.02, -187500.02, -181846.77, -184206.78, -187500.02, -185387.28, -187500.02, 0.012, 0.900, 0.294, 20:52:13.408, 1541901133408
14, -187500.02, -187500.02, -187500.02, -182641.16, -185020.45, -187500.02, -186208.00, -187500.02, 0.000, 0.000, 0.000, 20:52:13.409, 1541901133409
15, -187500.02, -187500.02, -187500.02, -182683.69, -185068.06, -187500.02, -186255.50, -187500.02, 0.000, 0.000, 0.000, 20:52:13.409, 1541901133409
16, -187500.02, -187500.02, -187500.02, -182329.08, -184709.13, -187500.02, -185891.22, -187500.02, 0.000, 0.000, 0.000, 20:52:13.410, 1541901133410
17, -187500.02, -187500.02, -187500.02, -181812.22, -184182.33, -187500.02, -185362.14, -187500.02, 0.000, 0.000, 0.000, 20:52:13.410, 1541901133410
18, -187500.02, -187500.02, -187500.02, -182520.34, -184905.33, -187500.02, -186092.53, -187500.02, 0.000, 0.000, 0.000, 20:52:13.410, 1541901133410
19, -187500.02, -187500.02, -187500.02, -182714.47, -185108.00, -187500.02, -186298.30, -187500.02, 0.000, 0.000, 0.000, 20:52:13.410, 1541901133410
20, -187500.02, -187500.02, -187500.02, -182421.88, -184811.61, -187500.02, -185997.59, -187500.02, 0.000, 0.000, 0.000, 20:52:13.410, 1541901133410
21, -187500.02, -187500.02, -187500.02, -181838.61, -184218.16, -187500.02, -185401.50, -187500.02, 0.000, 0.000, 0.000, 20:52:13.410, 1541901133410
22, -187500.02, -187500.02, -187500.02, -182369.80, -184760.61, -187500.02, -185948.36, -187500.02, 0.000, 0.000, 0.000, 20:52:13.410, 1541901133410
23, -187500.02, -187500.02, -187500.02, -182744.08, -185147.92, -187500.02, -186340.31, -187500.02, 0.010, 0.894, 0.292, 20:52:13.410, 1541901133410
24, -187500.02, -187500.02, -187500.02, -182500.67, -184903.08, -187500.02, -186090.66, -187500.02, 0.000, 0.000, 0.000, 20:52:13.410, 1541901133410
25, -187500.02, -187500.02, -187500.02, -181909.69, -184301.66, -187500.02, -185485.70, -187500.02, 0.000, 0.000, 0.000, 20:52:13.410, 1541901133410
26, -187500.02, -187500.02, -187500.02, -182200.02, -184598.11, -187500.02, -185784.44, -187500.02, 0.000, 0.000, 0.000, 20:52:13.411, 1541901133411
27, -187500.02, -187500.02, -187500.02, -182756.59, -185170.70, -187500.02, -186363.00, -187500.02, 0.000, 0.000, 0.000, 20:52:13.411, 1541901133411
28, -187500.02, -187500.02, -187500.02, -182564.48, -184977.47, -187500.02, -186166.08, -187500.02, 0.000, 0.000, 0.000, 20:52:13.411, 1541901133411
29, -187500.02, -187500.02, -187500.02, -182018.19, -184422.94, -187500.02, -185607.73, -187500.02, 0.000, 0.000, 0.000, 20:52:13.411, 1541901133411
30, -187500.02, -187500.02, -187500.02, -182045.77, -184450.28, -187500.02, -185637.13, -187500.02, 0.000, 0.000, 0.000, 20:52:13.411, 1541901133411
31, -187500.02, -187500.02, -187500.02, -182752.14, -185175.05, -187500.02, -186370.42, -187500.02, 0.000, 0.000, 0.000, 20:52:13.411, 1541901133411
32, -187500.02, -187500.02, -187500.02, -182620.27, -185044.88, -187500.02, -186236.69, -187500.02, 0.000, 0.000, 0.000, 20:52:13.411, 1541901133411
33, -187500.02, -187500.02, -187500.02, -182139.95, -184556.81, -187500.02, -185744.53, -187500.02, 0.014, 0.890, 0.286, 20:52:13.411, 1541901133411
34, -187500.02, -187500.02, -187500.02, -181919.52, -184330.77, -187500.02, -185518.56, -187500.02, 0.000, 0.000, 0.000, 20:52:13.411, 1541901133411
35, -187500.02, -187500.02, -187500.02, -182711.61, -185141.33, -187500.02, -186338.16, -187500.02, 0.000, 0.000, 0.000, 20:52:13.411, 1541901133411
36, -187500.02, -187500.02, -187500.02, -182666.70, -185099.69, -187500.02, -186294.94, -187500.02, 0.000, 0.000, 0.000, 20:52:13.412, 1541901133412
37, -187500.02, -187500.02, -187500.02, -182263.92, -184691.59, -187500.02, -185882.05, -187500.02, 0.000, 0.000, 0.000, 20:52:13.412, 1541901133412
38, -187500.02, -187500.02, -187500.02, -181847.69, -184266.55, -187500.02, -185454.73, -187500.02, 0.000, 0.000, 0.000, 20:52:13.412, 1541901133412
39, -187500.02, -187500.02, -187500.02, -182628.75, -185065.94, -187500.02, -186261.94, -187500.02, 0.000, 0.000, 0.000, 20:52:13.412, 1541901133412
40, -187500.02, -187500.02, -187500.02, -182707.42, -185150.94, -187500.02, -186348.14, -187500.02, 0.000, 0.000, 0.000, 20:52:13.412, 1541901133412
41, -187500.02, -187500.02, -187500.02, -182369.94, -184807.81, -187500.02, -186001.08, -187500.02, 0.000, 0.000, 0.000, 20:52:13.413, 1541901133413
42, -187500.02, -187500.02, -187500.02, -181828.38, -184255.61, -187500.02, -185447.28, -187500.02, 0.000, 0.000, 0.000, 20:52:13.413, 1541901133413
43, -187500.02, -187500.02, -187500.02, -182498.14, -184940.70, -187500.02, -186137.09, -187500.02, 0.000, 0.000, 0.000, 20:52:13.413, 1541901133413
44, -187500.02, -187500.02, -187500.02, -182738.83, -185190.80, -187500.02, -186391.30, -187500.02, 0.012, 0.902, 0.296, 20:52:13.413, 1541901133413
45, -187500.02, -187500.02, -187500.02, -182462.88, -184912.94, -187500.02, -186108.06, -187500.02, 0.000, 0.000, 0.000, 20:52:13.413, 1541901133413
46, -187500.02, -187500.02, -187500.02, -181871.53, -184311.00, -187500.02, -185503.45, -187500.02, 0.000, 0.000, 0.000, 20:52:13.413, 1541901133413
47, -187500.02, -187500.02, -187500.02, -182341.53, -184791.00, -187500.02, -185988.13, -187500.02, 0.000, 0.000, 0.000, 20:52:13.413, 1541901133413
48, -187500.02, -187500.02, -187500.02, -182763.33, -185225.70, -187500.02, -186429.53, -187500.02, 0.000, 0.000, 0.000, 20:52:13.413, 1541901133413
49, -187500.02, -187500.02, -187500.02, -182535.72, -184995.70, -187500.02, -186194.61, -187500.02, 0.000, 0.000, 0.000, 20:52:13.413, 1541901133413
50, -187500.02, -187500.02, -187500.02, -181952.31, -184402.75, -187500.02, -185596.55, -187500.02, 0.000, 0.000, 0.000, 20:52:13.413, 1541901133413
51, -187500.02, -187500.02, -187500.02, -182172.02, -184627.92, -187500.02, -185823.17, -187500.02, 0.000, 0.000, 0.000, 20:52:13.414, 1541901133414
52, -187500.02, -187500.02, -187500.02, -182770.75, -185243.11, -187500.02, -186447.20, -187500.02, 0.000, 0.000, 0.000, 20:52:13.414, 1541901133414
53, -187500.02, -187500.02, -187500.02, -182596.25, -185067.72, -187500.02, -186268.08, -187500.02, 0.000, 0.000, 0.000, 20:52:13.414, 1541901133414
54, -187500.02, -187500.02, -187500.02, -182064.67, -184527.55, -187500.02, -185724.27, -187500.02, 0.012, 0.906, 0.290, 20:52:13.414, 1541901133414
55, -187500.02, -187500.02, -187500.02, -182023.14, -184485.56, -187500.02, -185682.14, -187500.02, 0.000, 0.000, 0.000, 20:52:13.414, 1541901133414
56, -187500.02, -187500.02, -187500.02, -182756.47, -185237.89, -187500.02, -186443.06, -187500.02, 0.000, 0.000, 0.000, 20:52:13.414, 1541901133414
57, -187500.02, -187500.02, -187500.02, -182643.25, -185125.34, -187500.02, -186328.00, -187500.02, 0.000, 0.000, 0.000, 20:52:13.414, 1541901133414
58, -187500.02, -187500.02, -187500.02, -182182.72, -184658.03, -187500.02, -185855.80, -187500.02, 0.000, 0.000, 0.000, 20:52:13.414, 1541901133414
59, -187500.02, -187500.02, -187500.02, -181905.33, -184375.00, -187500.02, -185571.70, -187500.02, 0.000, 0.000, 0.000, 20:52:13.414, 1541901133414
60, -187500.02, -187500.02, -187500.02, -182702.14, -185190.25, -187500.02, -186397.42, -187500.02, 0.000, 0.000, 0.000, 20:52:13.414, 1541901133414
61, -187500.02, -187500.02, -187500.02, -182685.97, -185177.48, -187500.02, -186384.16, -187500.02, 0.000, 0.000, 0.000, 20:52:13.414, 1541901133414
62, -187500.02, -187500.02, -187500.02, -182302.45, -184788.92, -187500.02, -185989.84, -187500.02, 0.000, 0.000, 0.000, 20:52:13.415, 1541901133415
63, -187500.02, -187500.02, -187500.02, -181845.11, -184323.14, -187500.02, -185520.70, -187500.02, 0.000, 0.000, 0.000, 20:52:13.415, 1541901133415
64, -187500.02, -187500.02, -187500.02, -182604.89, -185100.25, -187500.02, -186306.08, -187500.02, 0.012, 0.904, 0.292, 20:52:13.415, 1541901133415
65, -187500.02, -187500.02, -187500.02, -182720.67, -185222.33, -187500.02, -186431.67, -187500.02, 0.000, 0.000, 0.000, 20:52:13.415, 1541901133415
66, -187500.02, -187500.02, -187500.02, -182402.16, -184900.42, -187500.02, -186104.23, -187500.02, 0.000, 0.000, 0.000, 20:52:13.415, 1541901133415
67, -187500.02, -187500.02, -187500.02, -181840.91, -184329.39, -187500.02, -185529.44, -187500.02, 0.000, 0.000, 0.000, 20:52:13.415, 1541901133415
68, -187500.02, -187500.02, -187500.02, -182467.44, -184968.25, -187500.02, -186175.31, -187500.02, 0.000, 0.000, 0.000, 20:52:13.415, 1541901133415
69, -187500.02, -187500.02, -187500.02, -182754.72, -185266.34, -187500.02, -186478.97, -187500.02, 0.000, 0.000, 0.000, 20:52:13.415, 1541901133415
70, -187500.02, -187500.02, -187500.02, -182493.11, -185002.08, -187500.02, -186208.95, -187500.02, 0.000, 0.000, 0.000, 20:52:13.415, 1541901133415
71, -187500.02, -187500.02, -187500.02, -181899.58, -184398.16, -187500.02, -185599.84, -187500.02, 0.000, 0.000, 0.000, 20:52:13.415, 1541901133415
72, -187500.02, -187500.02, -187500.02, -182310.72, -184817.20, -187500.02, -186023.39, -187500.02, 0.000, 0.000, 0.000, 20:52:13.416, 1541901133416
73, -187500.02, -187500.02, -187500.02, -182778.56, -185298.77, -187500.02, -186513.31, -187500.02, 0.000, 0.000, 0.000, 20:52:13.416, 1541901133416
74, -187500.02, -187500.02, -187500.02, -182562.31, -185081.88, -187500.02, -186291.48, -187500.02, 0.012, 0.904, 0.290, 20:52:13.416, 1541901133416
75, -187500.02, -187500.02, -187500.02, -181988.91, -184499.83, -187500.02, -185704.55, -187500.02, 0.000, 0.000, 0.000, 20:52:13.416, 1541901133416
76, -187500.02, -187500.02, -187500.02, -182143.67, -184657.52, -187500.02, -185863.72, -187500.02, 0.000, 0.000, 0.000, 20:52:13.416, 1541901133416
77, -187500.02, -187500.02, -187500.02, -182781.47, -185312.92, -187500.02, -186528.92, -187500.02, 0.000, 0.000, 0.000, 20:52:13.416, 1541901133416
78, -187500.02, -187500.02, -187500.02, -182618.97, -185149.97, -187500.02, -186362.61, -187500.02, 0.000, 0.000, 0.000, 20:52:13.416, 1541901133416
79, -187500.02, -187500.02, -187500.02, -182104.44, -184627.58, -187500.02, -185835.33, -187500.02, 0.000, 0.000, 0.000, 20:52:13.416, 1541901133416
80, -187500.02, -187500.02, -187500.02, -182000.02, -184520.14, -187500.02, -185726.98, -187500.02, 0.000, 0.000, 0.000, 20:52:13.416, 1541901133416
81, -187500.02, -187500.02, -187500.02, -182756.81, -185295.70, -187500.02, -186512.30, -187500.02, 0.000, 0.000, 0.000, 20:52:13.416, 1541901133416
82, -187500.02, -187500.02, -187500.02, -182665.36, -185205.14, -187500.02, -186419.73, -187500.02, 0.000, 0.000, 0.000, 20:52:13.416, 1541901133416
83, -187500.02, -187500.02, -187500.02, -182224.84, -184757.77, -187500.02, -185967.31, -187500.02, 0.000, 0.000, 0.000, 20:52:13.416, 1541901133416
84, -187500.02, -187500.02, -187500.02, -181896.44, -184423.61, -187500.02, -185630.53, -187500.02, 0.008, 0.896, 0.286, 20:52:13.417, 1541901133417
85, -187500.02, -187500.02, -187500.02, -182696.42, -185242.63, -187500.02, -186459.19, -187500.02, 0.000, 0.000, 0.000, 20:52:13.417, 1541901133417
86, -187500.02, -187500.02, -187500.02, -182710.42, -185259.67, -187500.02, -186476.59, -187500.02, 0.000, 0.000, 0.000, 20:52:13.417, 1541901133417
87, -187500.02, -187500.02, -187500.02, -182342.08, -184886.03, -187500.02, -186098.31, -187500.02, 0.000, 0.000, 0.000, 20:52:13.417, 1541901133417
88, -187500.02, -187500.02, -187500.02, -181852.72, -184388.05, -187500.02, -185596.70, -187500.02, 0.000, 0.000, 0.000, 20:52:13.417, 1541901133417
89, -187500.02, -187500.02, -187500.02, -182589.66, -185140.98, -187500.02, -186358.16, -187500.02, 0.000, 0.000, 0.000, 20:52:13.417, 1541901133417
90, -187500.02, -187500.02, -187500.02, -182745.11, -185303.95, -187500.02, -186524.86, -187500.02, 0.000, 0.000, 0.000, 20:52:13.420, 1541901133420
91, -187500.02, -187500.02, -187500.02, -182437.59, -184992.94, -187500.02, -186207.61, -187500.02, 0.000, 0.000, 0.000, 20:52:13.421, 1541901133421
92, -187500.02, -187500.02, -187500.02, -181861.81, -184407.88, -187500.02, -185617.95, -187500.02, 0.000, 0.000, 0.000, 20:52:13.421, 1541901133421
93, -187500.02, -187500.02, -187500.02, -182442.63, -185001.88, -187500.02, -186218.55, -187500.02, 0.000, 0.000, 0.000, 20:52:13.421, 1541901133421
94, -187500.02, -187500.02, -187500.02, -182773.92, -185344.48, -187500.02, -186566.92, -187500.02, 0.014, 0.896, 0.286, 20:52:13.422, 1541901133422
95, -187500.02, -187500.02, -187500.02, -182519.98, -185088.47, -187500.02, -186305.50, -187500.02, 0.000, 0.000, 0.000, 20:52:13.422, 1541901133422
96, -187500.02, -187500.02, -187500.02, -181924.28, -184483.00, -187500.02, -185695.83, -187500.02, 0.000, 0.000, 0.000, 20:52:13.422, 1541901133422
97, -187500.02, -187500.02, -187500.02, -182275.81, -184840.38, -187500.02, -186057.64, -187500.02, 0.000, 0.000, 0.000, 20:52:13.423, 1541901133423
98, -187500.02, -187500.02, -187500.02, -182790.28, -185370.08, -187500.02, -186596.30, -187500.02, 0.000, 0.000, 0.000, 20:52:13.423, 1541901133423
99, -187500.02, -187500.02, -187500.02, -182585.97, -185164.34, -187500.02, -186385.58, -187500.02, 0.000, 0.000, 0.000, 20:52:13.423, 1541901133423
100, -187500.02, -187500.02, -187500.02, -182023.92, -184592.86, -187500.02, -185809.11, -187500.02, 0.000, 0.000, 0.000, 20:52:13.423, 1541901133423
101, -187500.02, -187500.02, -187500.02, -182118.00, -184688.66, -187500.02, -185906.83, -187500.02, 0.000, 0.000, 0.000, 20:52:13.423, 1541901133423
102, -187500.02, -187500.02, -187500.02, -182791.69, -185380.27, -187500.02, -186608.58, -187500.02, 0.000, 0.000, 0.000, 20:52:13.423, 1541901133423
103, -187500.02, -187500.02, -187500.02, -182644.23, -185231.94, -187500.02, -186455.61, -187500.02, 0.000, 0.000, 0.000, 20:52:13.423, 1541901133423
104, -187500.02, -187500.02, -187500.02, -182144.73, -184725.00, -187500.02, -185943.48, -187500.02, 0.010, 0.896, 0.284, 20:52:13.423, 1541901133423
105, -187500.02, -187500.02, -187500.02, -181979.42, -184557.44, -187500.02, -185774.66, -187500.02, 0.000, 0.000, 0.000, 20:52:13.423, 1541901133423
106, -187500.02, -187500.02, -187500.02, -182755.81, -185353.63, -187500.02, -186582.05, -187500.02, 0.000, 0.000, 0.000, 20:52:13.423, 1541901133423
107, -187500.02, -187500.02, -187500.02, -182687.22, -185286.19, -187500.02, -186513.16, -187500.02, 0.000, 0.000, 0.000, 20:52:13.424, 1541901133424
108, -187500.02, -187500.02, -187500.02, -182263.73, -184856.30, -187500.02, -186077.19, -187500.02, 0.000, 0.000, 0.000, 20:52:13.424, 1541901133424
109, -187500.02, -187500.02, -187500.02, -181889.53, -184475.73, -187500.02, -185693.13, -187500.02, 0.000, 0.000, 0.000, 20:52:13.424, 1541901133424
110, -187500.02, -187500.02, -187500.02, -182684.47, -185290.23, -187500.02, -186518.14, -187500.02, 0.000, 0.000, 0.000, 20:52:13.429, 1541901133429
111, -187500.02, -187500.02, -187500.02, -182729.95, -185340.45, -187500.02, -186570.20, -187500.02, 0.000, 0.000, 0.000, 20:52:13.429, 1541901133429
112, -187500.02, -187500.02, -187500.02, -182377.22, -184982.38, -187500.02, -186206.94, -187500.02, 0.000, 0.000, 0.000, 20:52:13.430, 1541901133430
113, -187500.02, -187500.02, -187500.02, -181859.06, -184454.28, -187500.02, -185674.61, -187500.02, 0.000, 0.000, 0.000, 20:52:13.430, 1541901133430
114, -187500.02, -187500.02, -187500.02, -182567.13, -185178.70, -187500.02, -186407.47, -187500.02, 0.000, 0.000, 0.000, 20:52:13.430, 1541901133430
115, -187500.02, -187500.02, -187500.02, -182764.98, -185385.03, -187500.02, -186617.75, -187500.02, 0.016, 0.898, 0.288, 20:52:13.430, 1541901133430
116, -187500.02, -187500.02, -187500.02, -182472.84, -185090.09, -187500.02, -186316.52, -187500.02, 0.000, 0.000, 0.000, 20:52:13.430, 1541901133430
117, -187500.02, -187500.02, -187500.02, -181889.42, -184496.08, -187500.02, -185717.36, -187500.02, 0.000, 0.000, 0.000, 20:52:13.430, 1541901133430
118, -187500.02, -187500.02, -187500.02, -182420.72, -185038.22, -187500.02, -186265.69, -187500.02, 0.000, 0.000, 0.000, 20:52:13.430, 1541901133430
119, -187500.02, -187500.02, -187500.02, -182797.30, -185427.45, -187500.02, -186663.08, -187500.02, 0.000, 0.000, 0.000, 20:52:13.430, 1541901133430
120, -187500.02, -187500.02, -187500.02, -182556.69, -185184.67, -187500.02, -186415.05, -187500.02, 0.000, 0.000, 0.000, 20:52:13.430, 1541901133430
121, -187500.02, -187500.02, -187500.02, -181965.59, -184582.95, -187500.02, -185807.39, -187500.02, 0.000, 0.000, 0.000, 20:52:13.887, 1541901133887
122, -187500.02, -187500.02, -187500.02, -182255.72, -184878.53, -187500.02, -186105.38, -187500.02, 0.000, 0.000, 0.000, 20:52:13.888, 1541901133888
123, -187500.02, -187500.02, -187500.02, -182812.97, -185452.59, -187500.02, -186689.11, -187500.02, 0.000, 0.000, 0.000, 20:52:13.889, 1541901133889
124, -187500.02, -187500.02, -187500.02, -182621.34, -185259.33, -187500.02, -186491.42, -187500.02, 0.000, 0.000, 0.000, 20:52:13.889, 1541901133889
125, -187500.02, -187500.02, -187500.02, -182072.92, -184702.20, -187500.02, -185928.55, -187500.02, 0.014, 0.900, 0.284, 20:52:13.890, 1541901133890
126, -187500.02, -187500.02, -187500.02, -182096.64, -184725.97, -187500.02, -185952.09, -187500.02, 0.000, 0.000, 0.000, 20:52:13.890, 1541901133890
127, -187500.02, -187500.02, -187500.02, -182806.06, -185453.31, -187500.02, -186691.83, -187500.02, 0.000, 0.000, 0.000, 20:52:13.890, 1541901133890
128, -187500.02, -187500.02, -187500.02, -182675.75, -185323.58, -187500.02, -186558.06, -187500.02, 0.000, 0.000, 0.000, 20:52:13.891, 1541901133891
129, -187500.02, -187500.02, -187500.02, -182193.84, -184834.48, -187500.02, -186062.89, -187500.02, 0.000, 0.000, 0.000, 20:52:13.891, 1541901133891
130, -187500.02, -187500.02, -187500.02, -181970.47, -184605.28, -187500.02, -185832.89, -187500.02, 0.000, 0.000, 0.000, 20:52:13.891, 1541901133891
131, -187500.02, -187500.02, -187500.02, -182762.27, -185416.14, -187500.02, -186656.97, -187500.02, 0.000, 0.000, 0.000, 20:52:13.891, 1541901133891
132, -187500.02, -187500.02, -187500.02, -182719.36, -185376.36, -187500.02, -186615.95, -187500.02, 0.000, 0.000, 0.000, 20:52:13.891, 1541901133891
133, -187500.02, -187500.02, -187500.02, -182316.94, -184967.86, -187500.02, -186201.06, -187500.02, 0.000, 0.000, 0.000, 20:52:13.891, 1541901133891
134, -187500.02, -187500.02, -187500.02, -181898.67, -184540.98, -187500.02, -185769.86, -187500.02, 0.000, 0.000, 0.000, 20:52:13.891, 1541901133891
135, -187500.02, -187500.02, -187500.02, -182680.67, -185341.70, -187500.02, -186581.36, -187500.02, 0.018, 0.902, 0.280, 20:52:13.891, 1541901133891
136, -187500.02, -187500.02, -187500.02, -182762.25, -185429.42, -187500.02, -186671.02, -187500.02, 0.000, 0.000, 0.000, 20:52:13.891, 1541901133891
137, -187500.02, -187500.02, -187500.02, -182426.14, -185088.73, -187500.02, -186323.17, -187500.02, 0.000, 0.000, 0.000, 20:52:13.892, 1541901133892
138, -187500.02, -187500.02, -187500.02, -181883.42, -184536.75, -187500.02, -185765.92, -187500.02, 0.000, 0.000, 0.000, 20:52:13.892, 1541901133892
139, -187500.02, -187500.02, -187500.02, -182551.47, -185219.64, -187500.02, -186458.02, -187500.02, 0.000, 0.000, 0.000, 20:52:13.892, 1541901133892
140, -187500.02, -187500.02, -187500.02, -182794.81, -185472.88, -187500.02, -186716.16, -187500.02, 0.000, 0.000, 0.000, 20:52:13.892, 1541901133892
141, -187500.02, -187500.02, -187500.02, -182517.77, -185192.72, -187500.02, -186430.34, -187500.02, 0.000, 0.000, 0.000, 20:52:13.892, 1541901133892
142, -187500.02, -187500.02, -187500.02, -181925.47, -184589.13, -187500.02, -185822.55, -187500.02, 0.000, 0.000, 0.000, 20:52:13.892, 1541901133892
143, -187500.02, -187500.02, -187500.02, -182396.53, -185070.25, -187500.02, -186309.06, -187500.02, 0.000, 0.000, 0.000, 20:52:13.892, 1541901133892
144, -187500.02, -187500.02, -187500.02, -182822.83, -185510.31, -187500.02, -186758.27, -187500.02, 0.000, 0.000, 0.000, 20:52:13.892, 1541901133892
145, -187500.02, -187500.02, -187500.02, -182594.17, -185279.69, -187500.02, -186521.55, -187500.02, 0.022, 0.902, 0.282, 20:52:13.892, 1541901133892
146, -187500.02, -187500.02, -187500.02, -182011.45, -184686.69, -187500.02, -185921.25, -187500.02, 0.000, 0.000, 0.000, 20:52:13.893, 1541901133893
147, -187500.02, -187500.02, -187500.02, -182231.28, -184910.19, -187500.02, -186147.78, -187500.02, 0.000, 0.000, 0.000, 20:52:13.893, 1541901133893
148, -187500.02, -187500.02, -187500.02, -182832.59, -185528.92, -187500.02, -186778.09, -187500.02, 0.000, 0.000, 0.000, 20:52:13.893, 1541901133893
149, -187500.02, -187500.02, -187500.02, -182656.53, -185351.80, -187500.02, -186596.20, -187500.02, 0.000, 0.000, 0.000, 20:52:13.893, 1541901133893
150, -187500.02, -187500.02, -187500.02, -182123.91, -184811.03, -187500.02, -186048.84, -187500.02, 0.000, 0.000, 0.000, 20:52:13.893, 1541901133893
151, -187500.02, -187500.02, -187500.02, -182077.02, -184763.61, -187500.02, -186001.23, -187500.02, 0.000, 0.000, 0.000, 20:52:13.893, 1541901133893
152, -187500.02, -187500.02, -187500.02, -182813.48, -185519.16, -187500.02, -186769.20, -187500.02, 0.000, 0.000, 0.000, 20:52:13.893, 1541901133893
153, -187500.02, -187500.02, -187500.02, -182702.19, -185408.56, -187500.02, -186654.30, -187500.02, 0.000, 0.000, 0.000, 20:52:13.893, 1541901133893
154, -187500.02, -187500.02, -187500.02, -182242.66, -184941.66, -187500.02, -186180.13, -187500.02, 0.000, 0.000, 0.000, 20:52:13.894, 1541901133894
155, -187500.02, -187500.02, -187500.02, -181960.88, -184653.41, -187500.02, -185888.95, -187500.02, 0.020, 0.902, 0.282, 20:52:13.894, 1541901133894
156, -187500.02, -187500.02, -187500.02, -182758.83, -185470.77, -187500.02, -186719.50, -187500.02, 0.000, 0.000, 0.000, 20:52:13.894, 1541901133894
157, -187500.02, -187500.02, -187500.02, -182745.11, -185460.03, -187500.02, -186709.45, -187500.02, 0.000, 0.000, 0.000, 20:52:13.894, 1541901133894
158, -187500.02, -187500.02, -187500.02, -182359.86, -185069.11, -187500.02, -186312.47, -187500.02, 0.000, 0.000, 0.000, 20:52:13.894, 1541901133894
159, -187500.02, -187500.02, -187500.02, -181898.73, -184600.09, -187500.02, -185838.20, -187500.02, 0.000, 0.000, 0.000, 20:52:13.894, 1541901133894
160, -187500.02, -187500.02, -187500.02, -182660.44, -185380.02, -187500.02, -186628.98, -187500.02, 0.000, 0.000, 0.000, 20:52:13.894, 1541901133894
161, -187500.02, -187500.02, -187500.02, -182779.81, -185506.42, -187500.02, -186757.73, -187500.02, 0.000, 0.000, 0.000, 20:52:13.894, 1541901133894
162, -187500.02, -187500.02, -187500.02, -182461.63, -185184.42, -187500.02, -186428.70, -187500.02, 0.000, 0.000, 0.000, 20:52:13.895, 1541901133895
163, -187500.02, -187500.02, -187500.02, -181899.41, -184611.67, -187500.02, -185850.08, -187500.02, 0.000, 0.000, 0.000, 20:52:13.895, 1541901133895
164, -187500.02, -187500.02, -187500.02, -182524.39, -185249.06, -187500.02, -186496.67, -187500.02, 0.000, 0.000, 0.000, 20:52:13.895, 1541901133895
165, -187500.02, -187500.02, -187500.02, -182814.44, -185549.58, -187500.02, -186804.47, -187500.02, 0.018, 0.910, 0.294, 20:52:13.896, 1541901133896
166, -187500.02, -187500.02, -187500.02, -182551.42, -185284.16, -187500.02, -186532.44, -187500.02, 0.000, 0.000, 0.000, 20:52:13.896, 1541901133896
167, -187500.02, -187500.02, -187500.02, -181954.81, -184677.48, -187500.02, -185918.47, -187500.02, 0.000, 0.000, 0.000, 20:52:13.897, 1541901133897
168, -187500.02, -187500.02, -187500.02, -182361.38, -185092.59, -187500.02, -186338.16, -187500.02, 0.000, 0.000, 0.000, 20:52:13.897, 1541901133897
169, -187500.02, -187500.02, -187500.02, -182836.28, -185582.42, -187500.02, -186838.05, -187500.02, 0.000, 0.000, 0.000, 20:52:13.898, 1541901133898
170, -187500.02, -187500.02, -187500.02, -182623.58, -185367.61, -187500.02, -186617.80, -187500.02, 0.000, 0.000, 0.000, 20:52:13.898, 1541901133898
171, -187500.02, -187500.02, -187500.02, -182049.75, -184784.48, -187500.02, -186027.86, -187500.02, 0.000, 0.000, 0.000, 20:52:13.899, 1541901133899
172, -187500.02, -187500.02, -187500.02, -182196.73, -184934.34, -187500.02, -186179.36, -187500.02, 0.000, 0.000, 0.000, 20:52:13.900, 1541901133900
173, -187500.02, -187500.02, -187500.02, -182839.67, -185594.81, -187500.02, -186852.78, -187500.02, 0.000, 0.000, 0.000, 20:52:13.900, 1541901133900
174, -187500.02, -187500.02, -187500.02, -182680.06, -185434.47, -187500.02, -186687.95, -187500.02, 0.000, 0.000, 0.000, 20:52:13.900, 1541901133900
175, -187500.02, -187500.02, -187500.02, -182165.64, -184912.58, -187500.02, -186159.42, -187500.02, 0.018, 0.908, 0.296, 20:52:13.900, 1541901133900
176, -187500.02, -187500.02, -187500.02, -182049.61, -184795.09, -187500.02, -186039.69, -187500.02, 0.000, 0.000, 0.000, 20:52:13.901, 1541901133901
177, -187500.02, -187500.02, -187500.02, -182808.31, -185573.19, -187500.02, -186832.17, -187500.02, 0.000, 0.000, 0.000, 20:52:13.901, 1541901133901
178, -187500.02, -187500.02, -187500.02, -182724.05, -185488.92, -187500.02, -186745.33, -187500.02, 0.000, 0.000, 0.000, 20:52:13.901, 1541901133901
179, -187500.02, -187500.02, -187500.02, -182287.50, -185045.30, -187500.02, -186294.47, -187500.02, 0.000, 0.000, 0.000, 20:52:13.901, 1541901133901
180, -187500.02, -187500.02, -187500.02, -181949.45, -184701.20, -187500.02, -185945.92, -187500.02, 0.000, 0.000, 0.000, 20:52:13.901, 1541901133901
181, -187500.02, -187500.02, -187500.02, -182747.56, -185518.56, -187500.02, -186777.34, -187500.02, 0.000, 0.000, 0.000, 20:52:13.901, 1541901133901
182, -187500.02, -187500.02, -187500.02, -182766.94, -185541.42, -187500.02, -186801.95, -187500.02, 0.000, 0.000, 0.000, 20:52:13.901, 1541901133901
183, -187500.02, -187500.02, -187500.02, -182402.50, -185173.52, -187500.02, -186426.47, -187500.02, 0.000, 0.000, 0.000, 20:52:13.901, 1541901133901
184, -187500.02, -187500.02, -187500.02, -181812.45, -184666.58, -187500.02, -185912.78, -187500.02, 0.000, 0.000, 0.000, 20:52:13.901, 1541901133901
185, -187500.02, -187500.02, -187500.02, -182638.78, -185406.58, -187500.02, -186664.31, -187500.02, 0.000, 0.000, 0.000, 20:52:13.902, 1541901133902
186, -187500.02, -187500.02, -187500.02, -182941.84, -185574.48, -187500.02, -186837.36, -187500.02, 0.012, 0.908, 0.294, 20:52:13.902, 1541901133902
187, -187500.02, -187500.02, -187500.02, -182643.86, -185271.25, -187500.02, -186527.02, -187500.02, 0.000, 0.000, 0.000, 20:52:13.902, 1541901133902
188, -187500.02, -187500.02, -187500.02, -182067.27, -184683.00, -187500.02, -185933.19, -187500.02, 0.000, 0.000, 0.000, 20:52:13.902, 1541901133902
189, -187500.02, -187500.02, -187500.02, -182640.41, -185270.31, -187500.02, -186527.95, -187500.02, 0.000, 0.000, 0.000, 20:52:13.902, 1541901133902
190, -187500.02, -187500.02, -187500.02, -182976.88, -185617.94, -187500.02, -186883.73, -187500.02, 0.000, 0.000, 0.000, 20:52:13.902, 1541901133902
191, -187500.02, -187500.02, -187500.02, -182730.75, -185367.64, -187500.02, -186626.67, -187500.02, 0.000, 0.000, 0.000, 20:52:13.902, 1541901133902
192, -187500.02, -187500.02, -187500.02, -182134.33, -184761.80, -187500.02, -186014.03, -187500.02, 0.000, 0.000, 0.000, 20:52:13.903, 1541901133903
193, -187500.02, -187500.02, -187500.02, -182475.55, -185109.14, -187500.02, -186366.30, -187500.02, 0.000, 0.000, 0.000, 20:52:13.903, 1541901133903
194, -187500.02, -187500.02, -187500.02, -182995.05, -185643.75, -187500.02, -186911.67, -187500.02, 0.000, 0.000, 0.000, 20:52:13.903, 1541901133903
195, -187500.02, -187500.02, -187500.02, -182796.69, -185445.31, -187500.02, -186707.42, -187500.02, 0.000, 0.000, 0.000, 20:52:13.904, 1541901133904
196, -187500.02, -187500.02, -187500.02, -182236.31, -184876.03, -187500.02, -186129.86, -187500.02, 0.012, 0.904, 0.292, 20:52:13.904, 1541901133904
197, -187500.02, -187500.02, -187500.02, -182315.78, -184956.45, -187500.02, -186210.95, -187500.02, 0.000, 0.000, 0.000, 20:52:13.904, 1541901133904
198, -187500.02, -187500.02, -187500.02, -182991.63, -185650.97, -187500.02, -186920.56, -187500.02, 0.000, 0.000, 0.000, 20:52:13.904, 1541901133904
199, -187500.02, -187500.02, -187500.02, -182849.73, -185509.13, -187500.02, -186774.83, -187500.02, 0.000, 0.000, 0.000, 20:52:13.905, 1541901133905
200, -187500.02, -187500.02, -187500.02, -182353.91, -185005.94, -187500.02, -186263.27, -187500.02, 0.000, 0.000, 0.000, 20:52:13.905, 1541901133905
201, -187500.02, -187500.02, -187500.02, -182178.80, -184826.50, -187500.02, -186081.16, -187500.02, 0.000, 0.000, 0.000, 20:52:13.905, 1541901133905
202, -187500.02, -187500.02, -187500.02, -182957.06, -185624.89, -187500.02, -186894.02, -187500.02, 0.000, 0.000, 0.000, 20:52:13.905, 1541901133905
203, -187500.02, -187500.02, -187500.02, -182894.58, -185564.31, -187500.02, -186832.09, -187500.02, 0.000, 0.000, 0.000, 20:52:13.905, 1541901133905
204, -187500.02, -187500.02, -187500.02, -182477.20, -185140.66, -187500.02, -186402.13, -187500.02, 0.000, 0.000, 0.000, 20:52:13.905, 1541901133905
205, -187500.02, -187500.02, -187500.02, -182093.11, -184749.75, -187500.02, -186005.83, -187500.02, 0.000, 0.000, 0.000, 20:52:13.905, 1541901133905
206, -187500.02, -187500.02, -187500.02, -182884.14, -185560.20, -187500.02, -186830.05, -187500.02, 0.016, 0.896, 0.294, 20:52:13.905, 1541901133905
207, -187500.02, -187500.02, -187500.02, -182936.14, -185617.78, -187500.02, -186888.42, -187500.02, 0.000, 0.000, 0.000, 20:52:13.905, 1541901133905
208, -187500.02, -187500.02, -187500.02, -182592.05, -185268.94, -187500.02, -186532.50, -187500.02, 0.000, 0.000, 0.000, 20:52:13.905, 1541901133905
209, -187500.02, -187500.02, -187500.02, -182065.77, -184731.50, -187500.02, -185990.09, -187500.02, 0.000, 0.000, 0.000, 20:52:13.906, 1541901133906
210, -187500.02, -187500.02, -187500.02, -182769.66, -185450.92, -187500.02, -186720.81, -187500.02, 0.000, 0.000, 0.000, 20:52:13.906, 1541901133906
211, -187500.02, -187500.02, -187500.02, -182974.81, -185665.47, -187500.02, -186939.66, -187500.02, 0.000, 0.000, 0.000, 20:52:13.906, 1541901133906
212, -187500.02, -187500.02, -187500.02, -182691.39, -185378.59, -187500.02, -186645.13, -187500.02, 0.000, 0.000, 0.000, 20:52:13.906, 1541901133906
213, -187500.02, -187500.02, -187500.02, -182101.31, -184778.06, -187500.02, -186037.41, -187500.02, 0.000, 0.000, 0.000, 20:52:13.906, 1541901133906
214, -187500.02, -187500.02, -187500.02, -182621.77, -185309.91, -187500.02, -186577.84, -187500.02, 0.000, 0.000, 0.000, 20:52:13.907, 1541901133907
215, -187500.02, -187500.02, -187500.02, -183002.64, -185704.36, -187500.02, -186981.81, -187500.02, 0.000, 0.000, 0.000, 20:52:13.907, 1541901133907
216, -187500.02, -187500.02, -187500.02, -182769.69, -185468.31, -187500.02, -186738.78, -187500.02, 0.014, 0.892, 0.290, 20:52:13.907, 1541901133907
217, -187500.02, -187500.02, -187500.02, -182177.55, -184864.23, -187500.02, -186127.13, -187500.02, 0.000, 0.000, 0.000, 20:52:13.907, 1541901133907
218, -187500.02, -187500.02, -187500.02, -182456.23, -185149.13, -187500.02, -186415.86, -187500.02, 0.000, 0.000, 0.000, 20:52:13.907, 1541901133907
219, -187500.02, -187500.02, -187500.02, -183015.94, -185727.05, -187500.02, -187006.78, -187500.02, 0.000, 0.000, 0.000, 20:52:13.907, 1541901133907
220, -187500.02, -187500.02, -187500.02, -182832.81, -185543.34, -187500.02, -186816.30, -187500.02, 0.000, 0.000, 0.000, 20:52:13.908, 1541901133908
221, -187500.02, -187500.02, -187500.02, -182286.25, -184988.97, -187500.02, -186252.77, -187500.02, 0.000, 0.000, 0.000, 20:52:13.908, 1541901133908
222, -187500.02, -187500.02, -187500.02, -182301.52, -185004.25, -187500.02, -186267.72, -187500.02, 0.000, 0.000, 0.000, 20:52:13.908, 1541901133908
223, -187500.02, -187500.02, -187500.02, -183009.58, -185730.86, -187500.02, -187011.83, -187500.02, 0.000, 0.000, 0.000, 20:52:13.908, 1541901133908
224, -187500.02, -187500.02, -187500.02, -182886.17, -185607.00, -187500.02, -186884.98, -187500.02, 0.000, 0.000, 0.000, 20:52:13.908, 1541901133908
225, -187500.02, -187500.02, -187500.02, -182410.41, -185122.44, -187500.02, -186391.39, -187500.02, 0.000, 0.000, 0.000, 20:52:13.908, 1541901133908
226, -187500.02, -187500.02, -187500.02, -182176.36, -184882.33, -187500.02, -186147.75, -187500.02, 0.014, 0.900, 0.288, 20:52:13.908, 1541901133908
227, -187500.02, -187500.02, -187500.02, -182967.38, -185693.72, -187500.02, -186975.67, -187500.02, 0.000, 0.000, 0.000, 20:52:13.908, 1541901133908
228, -187500.02, -187500.02, -187500.02, -182929.17, -185658.61, -187500.02, -186939.08, -187500.02, 0.000, 0.000, 0.000, 20:52:13.908, 1541901133908
229, -187500.02, -187500.02, -187500.02, -182533.66, -185257.52, -187500.02, -186529.66, -187500.02, 0.000, 0.000, 0.000, 20:52:13.908, 1541901133908
230, -187500.02, -187500.02, -187500.02, -182105.33, -184820.44, -187500.02, -186086.06, -187500.02, 0.000, 0.000, 0.000, 20:52:13.909, 1541901133909
231, -187500.02, -187500.02, -187500.02, -182884.73, -185618.45, -187500.02, -186899.00, -187500.02, 0.000, 0.000, 0.000, 20:52:13.909, 1541901133909
232, -187500.02, -187500.02, -187500.02, -182969.47, -185708.81, -187500.02, -186991.48, -187500.02, 0.000, 0.000, 0.000, 20:52:13.909, 1541901133909
233, -187500.02, -187500.02, -187500.02, -182640.48, -185374.72, -187500.02, -186649.84, -187500.02, 0.000, 0.000, 0.000, 20:52:13.909, 1541901133909
234, -187500.02, -187500.02, -187500.02, -182091.44, -184814.72, -187500.02, -186081.97, -187500.02, 0.000, 0.000, 0.000, 20:52:13.909, 1541901133909
235, -187500.02, -187500.02, -187500.02, -182758.47, -185496.47, -187500.02, -186775.33, -187500.02, 0.000, 0.000, 0.000, 20:52:13.909, 1541901133909
236, -187500.02, -187500.02, -187500.02, -183003.20, -185750.66, -187500.02, -187036.94, -187500.02, 0.012, 0.898, 0.284, 20:52:13.909, 1541901133909
237, -187500.02, -187500.02, -187500.02, -182733.08, -185478.08, -187500.02, -186756.95, -187500.02, 0.000, 0.000, 0.000, 20:52:13.909, 1541901133909
238, -187500.02, -187500.02, -187500.02, -182135.55, -184870.95, -187500.02, -186140.31, -187500.02, 0.000, 0.000, 0.000, 20:52:13.909, 1541901133909
239, -187500.02, -187500.02, -187500.02, -182600.16, -185345.63, -187500.02, -186622.73, -187500.02, 0.000, 0.000, 0.000, 20:52:13.909, 1541901133909
240, -187500.02, -187500.02, -187500.02, -183028.17, -185786.27, -187500.02, -187076.31, -187500.02, 0.000, 0.000, 0.000, 20:52:13.909, 1541901133909
241, -187500.02, -187500.02, -187500.02, -182806.50, -185561.98, -187500.02, -186845.73, -187500.02, 0.000, 0.000, 0.000, 20:52:14.364, 1541901134364
242, -187500.02, -187500.02, -187500.02, -182222.02, -184966.64, -187500.02, -186241.52, -187500.02, 0.000, 0.000, 0.000, 20:52:14.364, 1541901134364
243, -187500.02, -187500.02, -187500.02, -182435.36, -185183.48, -187500.02, -186460.91, -187500.02, 0.000, 0.000, 0.000, 20:52:14.364, 1541901134364
244, -187500.02, -187500.02, -187500.02, -183039.08, -185805.28, -187500.02, -187097.38, -187500.02, 0.000, 0.000, 0.000, 20:52:14.364, 1541901134364
245, -187500.02, -187500.02, -187500.02, -182870.44, -185636.63, -187500.02, -186922.52, -187500.02, 0.000, 0.000, 0.000, 20:52:14.364, 1541901134364
246, -187500.02, -187500.02, -187500.02, -182338.80, -185096.36, -187500.02, -186372.11, -187500.02, 0.012, 0.896, 0.282, 20:52:14.365, 1541901134365
247, -187500.02, -187500.02, -187500.02, -182288.17, -185043.47, -187500.02, -186318.34, -187500.02, 0.000, 0.000, 0.000, 20:52:14.365, 1541901134365
248, -187500.02, -187500.02, -187500.02, -183026.16, -185800.86, -187500.02, -187094.28, -187500.02, 0.000, 0.000, 0.000, 20:52:14.365, 1541901134365
249, -187500.02, -187500.02, -187500.02, -182920.56, -185695.27, -187500.02, -186985.34, -187500.02, 0.000, 0.000, 0.000, 20:52:14.366, 1541901134366
250, -187500.02, -187500.02, -187500.02, -182461.16, -185228.92, -187500.02, -186509.59, -187500.02, 0.000, 0.000, 0.000, 20:52:14.366, 1541901134366
251, -187500.02, -187500.02, -187500.02, -182173.86, -184935.33, -187500.02, -186211.28, -187500.02, 0.000, 0.000, 0.000, 20:52:14.366, 1541901134366
252, -187500.02, -187500.02, -187500.02, -182973.20, -185754.25, -187500.02, -187049.27, -187500.02, 0.000, 0.000, 0.000, 20:52:14.366, 1541901134366
253, -187500.02, -187500.02, -187500.02, -182964.64, -185750.41, -187500.02, -187045.11, -187500.02, 0.000, 0.000, 0.000, 20:52:14.366, 1541901134366
254, -187500.02, -187500.02, -187500.02, -182581.73, -185362.83, -187500.02, -186648.09, -187500.02, 0.000, 0.000, 0.000, 20:52:14.366, 1541901134366
255, -187500.02, -187500.02, -187500.02, -182117.14, -184889.13, -187500.02, -186166.53, -187500.02, 0.000, 0.000, 0.000, 20:52:14.366, 1541901134366
0, -187500.02, -187500.02, -187500.02, -182881.61, -185671.89, -187500.02, -186963.59, -187500.02, 0.000, 0.000, 0.000, 20:52:14.366, 1541901134366
1, -187500.02, -187500.02, -187500.02, -183006.22, -185803.14, -187500.02, -187099.20, -187500.02, 0.014, 0.900, 0.292, 20:52:14.366, 1541901134366
2, -187500.02, -187500.02, -187500.02, -182686.14, -185478.28, -187500.02, -186765.97, -187500.02, 0.000, 0.000, 0.000, 20:52:14.366, 1541901134366
3, -187500.02, -187500.02, -187500.02, -182118.34, -184899.09, -187500.02, -186177.67, -187500.02, 0.000, 0.000, 0.000, 20:52:14.367, 1541901134367
4, -187500.02, -187500.02, -187500.02, -182752.58, -185547.25, -187500.02, -186837.83, -187500.02, 0.000, 0.000, 0.000, 20:52:14.367, 1541901134367
5, -187500.02, -187500.02, -187500.02, -183049.53, -185855.84, -187500.02, -187156.78, -187500.02, 0.000, 0.000, 0.000, 20:52:14.367, 1541901134367
6, -187500.02, -187500.02, -187500.02, -182780.06, -185583.33, -187500.02, -186875.44, -187500.02, 0.000, 0.000, 0.000, 20:52:14.367, 1541901134367
7, -187500.02, -187500.02, -187500.02, -182175.08, -184967.66, -187500.02, -186248.88, -187500.02, 0.000, 0.000, 0.000, 20:52:14.367, 1541901134367
8, -187500.02, -187500.02, -187500.02, -182597.86, -185399.16, -187500.02, -186687.73, -187500.02, 0.000, 0.000, 0.000, 20:52:14.367, 1541901134367
9, -187500.02, -187500.02, -187500.02, -183079.72, -185896.72, -187500.02, -187200.02, -187500.02, 0.000, 0.000, 0.000, 20:52:14.367, 1541901134367
10, -187500.02, -187500.02, -187500.02, -182850.41, -185664.52, -187500.02, -186959.55, -187500.02, 0.000, 0.000, 0.000, 20:52:14.367, 1541901134367
11, -187500.02, -187500.02, -187500.02, -182255.09, -185057.95, -187500.02, -186341.19, -187500.02, 0.022, 0.900, 0.290, 20:52:14.367, 1541901134367
12, -187500.02, -187500.02, -187500.02, -182437.77, -185243.97, -187500.02, -186530.20, -187500.02, 0.000, 0.000, 0.000, 20:52:14.367, 1541901134367
13, -187500.02, -187500.02, -187500.02, -183105.13, -185931.23, -187500.02, -187236.84, -187500.02, 0.000, 0.000, 0.000, 20:52:14.367, 1541901134367
14, -187500.02, -187500.02, -187500.02, -182913.17, -185738.55, -187500.02, -187037.47, -187500.02, 0.000, 0.000, 0.000, 20:52:14.367, 1541901134367
15, -187500.02, -187500.02, -187500.02, -182328.58, -185143.83, -187500.02, -186431.36, -187500.02, 0.000, 0.000, 0.000, 20:52:14.367, 1541901134367
16, -187500.02, -187500.02, -187500.02, -182292.33, -185104.78, -187500.02, -186391.84, -187500.02, 0.000, 0.000, 0.000, 20:52:14.367, 1541901134367
17, -187500.02, -187500.02, -187500.02, -183125.95, -185960.19, -187500.02, -187271.64, -187500.02, 0.000, 0.000, 0.000, 20:52:14.368, 1541901134368
18, -187500.02, -187500.02, -187500.02, -183012.55, -185848.48, -187500.02, -187154.69, -187500.02, 0.000, 0.000, 0.000, 20:52:14.368, 1541901134368
19, -187500.02, -187500.02, -187500.02, -182457.59, -185284.80, -187500.02, -186575.86, -187500.02, 0.000, 0.000, 0.000, 20:52:14.368, 1541901134368
20, -187500.02, -187500.02, -187500.02, -182160.39, -184979.72, -187500.02, -186263.98, -187500.02, 0.000, 0.000, 0.000, 20:52:14.368, 1541901134368
21, -187500.02, -187500.02, -187500.02, -183052.52, -185894.42, -187500.02, -187201.38, -187500.02, 0.018, 0.902, 0.292, 20:52:14.370, 1541901134370
22, -187500.02, -187500.02, -187500.02, -183064.38, -185911.34, -187500.02, -187220.16, -187500.02, 0.000, 0.000, 0.000, 20:52:14.371, 1541901134371
23, -187500.02, -187500.02, -187500.02, -182580.84, -185419.81, -187500.02, -186715.77, -187500.02, 0.000, 0.000, 0.000, 20:52:14.371, 1541901134371
24, -187500.02, -187500.02, -187500.02, -182087.91, -184916.11, -187500.02, -186202.00, -187500.02, 0.000, 0.000, 0.000, 20:52:14.371, 1541901134371
25, -187500.02, -187500.02, -187500.02, -182928.72, -185776.11, -187500.02, -187080.72, -187500.02, 0.000, 0.000, 0.000, 20:52:14.371, 1541901134371
26, -187500.02, -187500.02, -187500.02, -183103.92, -185960.89, -187500.02, -187272.66, -187500.02, 0.000, 0.000, 0.000, 20:52:14.371, 1541901134371
27, -187500.02, -187500.02, -187500.02, -182692.22, -185543.55, -187500.02, -186842.42, -187500.02, 0.000, 0.000, 0.000, 20:52:14.371, 1541901134371
28, -187500.02, -187500.02, -187500.02, -182077.39, -184915.84, -187500.02, -186203.19, -187500.02, 0.000, 0.000, 0.000, 20:52:14.372, 1541901134372
29, -187500.02, -187500.02, -187500.02, -182768.06, -185622.38, -187500.02, -186924.14, -187500.02, 0.000, 0.000, 0.000, 20:52:14.372, 1541901134372
30, -187500.02, -187500.02, -187500.02, -183139.14, -186007.55, -187500.02, -187322.39, -187500.02, 0.000, 0.000, 0.000, 20:52:14.372, 1541901134372
31, -187500.02, -187500.02, -187500.02, -182800.70, -185664.27, -187500.02, -186967.91, -187500.02, 0.020, 0.902, 0.288, 20:52:14.372, 1541901134372
32, -187500.02, -187500.02, -187500.02, -182133.58, -184983.48, -187500.02, -186273.94, -187500.02, 0.000, 0.000, 0.000, 20:52:14.372, 1541901134372
33, -187500.02, -187500.02, -187500.02, -182588.20, -185446.42, -187500.02, -186745.67, -187500.02, 0.000, 0.000, 0.000, 20:52:14.373, 1541901134373
34, -187500.02, -187500.02, -187500.02, -183162.28, -186038.80, -187500.02, -187356.56, -187500.02, 0.000, 0.000, 0.000, 20:52:14.373, 1541901134373
35, -187500.02, -187500.02, -187500.02, -182894.95, -185769.55, -187500.02, -187077.14, -187500.02, 0.000, 0.000, 0.000, 20:52:14.374, 1541901134374
36, -187500.02, -187500.02, -187500.02, -182230.13, -185091.86, -187500.02, -186384.75, -187500.02, 0.000, 0.000, 0.000, 20:52:14.375, 1541901134375
37, -187500.02, -187500.02, -187500.02, -182408.25, -185272.31, -187500.02, -186568.50, -187500.02, 0.000, 0.000, 0.000, 20:52:14.375, 1541901134375
38, -187500.02, -187500.02, -187500.02, -183161.03, -186047.16, -187500.02, -187367.00, -187500.02, 0.000, 0.000, 0.000, 20:52:14.375, 1541901134375
39, -187500.02, -187500.02, -187500.02, -182974.09, -185860.05, -187500.02, -187171.89, -187500.02, 0.000, 0.000, 0.000, 20:52:14.375, 1541901134375
40, -187500.02, -187500.02, -187500.02, -182351.89, -185226.64, -187500.02, -186523.31, -187500.02, 0.000, 0.000, 0.000, 20:52:14.375, 1541901134375
41, -187500.02, -187500.02, -187500.02, -182244.88, -185115.36, -187500.02, -186409.30, -187500.02, 0.014, 0.900, 0.286, 20:52:14.375, 1541901134375
42, -187500.02, -187500.02, -187500.02, -183116.06, -186010.03, -187500.02, -187328.78, -187500.02, 0.000, 0.000, 0.000, 20:52:14.376, 1541901134376
43, -187500.02, -187500.02, -187500.02, -183031.41, -185927.55, -187500.02, -187244.22, -187500.02, 0.000, 0.000, 0.000, 20:52:14.376, 1541901134376
44, -187500.02, -187500.02, -187500.02, -182479.55, -185366.52, -187500.02, -186668.06, -187500.02, 0.000, 0.000, 0.000, 20:52:14.376, 1541901134376
45, -187500.02, -187500.02, -187500.02, -182129.03, -185007.38, -187500.02, -186300.70, -187500.02, 0.000, 0.000, 0.000, 20:52:14.376, 1541901134376
46, -187500.02, -187500.02, -187500.02, -183031.66, -185932.20, -187500.02, -187249.66, -187500.02, 0.000, 0.000, 0.000, 20:52:14.376, 1541901134376
47, -187500.02, -187500.02, -187500.02, -183086.06, -185992.59, -187500.02, -187313.17, -187500.02, 0.000, 0.000, 0.000, 20:52:14.376, 1541901134376
48, -187500.02, -187500.02, -187500.02, -182612.16, -185511.52, -187500.02, -186816.98, -187500.02, 0.000, 0.000, 0.000, 20:52:14.376, 1541901134376
49, -187500.02, -187500.02, -187500.02, -182077.89, -184964.86, -187500.02, -186259.31, -187500.02, 0.000, 0.000, 0.000, 20:52:14.376, 1541901134376
50, -187500.02, -187500.02, -187500.02, -182902.13, -185806.61, -187500.02, -187121.80, -187500.02, 0.000, 0.000, 0.000, 20:52:14.377, 1541901134377
51, -187500.02, -187500.02, -187500.02, -183131.91, -186046.89, -187500.02, -187373.02, -187500.02, 0.014, 0.900, 0.288, 20:52:14.377, 1541901134377
52, -187500.02, -187500.02, -187500.02, -182732.97, -185642.66, -187500.02, -186954.81, -187500.02, 0.000, 0.000, 0.000, 20:52:14.377, 1541901134377
53, -187500.02, -187500.02, -187500.02, -182093.75, -184990.03, -187500.02, -186288.08, -187500.02, 0.000, 0.000, 0.000, 20:52:14.378, 1541901134378
54, -187500.02, -187500.02, -187500.02, -182740.61, -185650.25, -187500.02, -186962.86, -187500.02, 0.000, 0.000, 0.000, 20:52:14.378, 1541901134378
55, -187500.02, -187500.02, -187500.02, -183169.59, -186095.61, -187500.02, -187424.73, -187500.02, 0.000, 0.000, 0.000, 20:52:14.378, 1541901134378
56, -187500.02, -187500.02, -187500.02, -182841.00, -185763.16, -187500.02, -187080.61, -187500.02, 0.000, 0.000, 0.000, 20:52:14.378, 1541901134378
57, -187500.02, -187500.02, -187500.02, -182158.17, -185066.67, -187500.02, -186368.14, -187500.02, 0.000, 0.000, 0.000, 20:52:14.378, 1541901134378
58, -187500.02, -187500.02, -187500.02, -182551.58, -185466.52, -187500.02, -186776.28, -187500.02, 0.000, 0.000, 0.000, 20:52:14.378, 1541901134378
59, -187500.02, -187500.02, -187500.02, -183179.17, -186112.73, -187500.02, -187445.50, -187500.02, 0.000, 0.000, 0.000, 20:52:14.378, 1541901134378
60, -187500.02, -187500.02, -187500.02, -182924.03, -185855.42, -187500.02, -187177.44, -187500.02, 0.000, 0.000, 0.000, 20:52:14.378, 1541901134378
61, -187500.02, -187500.02, -187500.02, -182257.91, -185177.47, -187500.02, -186482.59, -187500.02, 0.014, 0.894, 0.290, 20:52:14.379, 1541901134379
62, -187500.02, -187500.02, -187500.02, -182370.27, -185289.70, -187500.02, -186596.69, -187500.02, 0.000, 0.000, 0.000, 20:52:14.379, 1541901134379
63, -187500.02, -187500.02, -187500.02, -183165.25, -186106.42, -187500.02, -187439.75, -187500.02, 0.000, 0.000, 0.000, 20:52:14.379, 1541901134379
64, -187500.02, -187500.02, -187500.02, -182996.27, -185938.36, -187500.02, -187265.45, -187500.02, 0.000, 0.000, 0.000, 20:52:14.379, 1541901134379
65, -187500.02, -187500.02, -187500.02, -182380.38, -185312.08, -187500.02, -186621.59, -187500.02, 0.000, 0.000, 0.000, 20:52:14.379, 1541901134379
66, -187500.02, -187500.02, -187500.02, -182214.77, -185140.97, -187500.02, -186445.44, -187500.02, 0.000, 0.000, 0.000, 20:52:14.379, 1541901134379
67, -187500.02, -187500.02, -187500.02, -183109.75, -186059.00, -187500.02, -187389.89, -187500.02, 0.000, 0.000, 0.000, 20:52:14.379, 1541901134379
68, -187500.02, -187500.02, -187500.02, -183055.06, -186007.50, -187500.02, -187336.83, -187500.02, 0.000, 0.000, 0.000, 20:52:14.379, 1541901134379
69, -187500.02, -187500.02, -187500.02, -182513.39, -185457.95, -187500.02, -186770.08, -187500.02, 0.000, 0.000, 0.000, 20:52:14.379, 1541901134379
70, -187500.02, -187500.02, -187500.02, -182113.67, -185048.91, -187500.02, -186352.33, -187500.02, 0.000, 0.000, 0.000, 20:52:14.379, 1541901134379
71, -187500.02, -187500.02, -187500.02, -183014.53, -185971.58, -187500.02, -187300.38, -187500.02, 0.000, 0.000, 0.000, 20:52:14.380, 1541901134380
72, -187500.02, -187500.02, -187500.02, -183108.08, -186071.09, -187500.02, -187405.33, -187500.02, 0.020, 0.906, 0.288, 20:52:14.380, 1541901134380
73, -187500.02, -187500.02, -187500.02, -182643.81, -185599.25, -187500.02, -186917.59, -187500.02, 0.000, 0.000, 0.000, 20:52:14.380, 1541901134380
74, -187500.02, -187500.02, -187500.02, -182079.47, -185022.06, -187500.02, -186328.03, -187500.02, 0.000, 0.000, 0.000, 20:52:14.380, 1541901134380
75, -187500.02, -187500.02, -187500.02, -182874.25, -185834.39, -187500.02, -187161.34, -187500.02, 0.000, 0.000, 0.000, 20:52:14.380, 1541901134380
76, -187500.02, -187500.02, -187500.02, -183153.09, -186125.36, -187500.02, -187464.80, -187500.02, 0.000, 0.000, 0.000, 20:52:14.380, 1541901134380
77, -187500.02, -187500.02, -187500.02, -182767.84, -185736.31, -187500.02, -187060.31, -187500.02, 0.000, 0.000, 0.000, 20:52:14.380, 1541901134380
78, -187500.02, -187500.02, -187500.02, -182111.14, -185066.53, -187500.02, -186373.95, -187500.02, 0.000, 0.000, 0.000, 20:52:14.380, 1541901134380
79, -187500.02, -187500.02, -187500.02, -182701.56, -185668.17, -187500.02, -186989.92, -187500.02, 0.000, 0.000, 0.000, 20:52:14.380, 1541901134380
80, -187500.02, -187500.02, -187500.02, -183182.42, -186164.64, -187500.02, -187500.02, -187500.02, 0.000, 0.000, 0.000, 20:52:14.380, 1541901134380
81, -187500.02, -187500.02, -187500.02, -182872.44, -185850.97, -187500.02, -187180.19, -187500.02, 0.000, 0.000, 0.000, 20:52:14.381, 1541901134381
82, -187500.02, -187500.02, -187500.02, -182191.50, -185156.64, -187500.02, -186468.39, -187500.02, 0.018, 0.906, 0.288, 20:52:14.381, 1541901134381
83, -187500.02, -187500.02, -187500.02, -182511.58, -185481.91, -187500.02, -186799.56, -187500.02, 0.000, 0.000, 0.000, 20:52:14.381, 1541901134381
84, -187500.02, -187500.02, -187500.02, -183185.59, -186176.50, -187500.02, -187500.02, -187500.02, 0.000, 0.000, 0.000, 20:52:14.381, 1541901134381
85, -187500.02, -187500.02, -187500.02, -182958.95, -185949.25, -187500.02, -187281.45, -187500.02, 0.000, 0.000, 0.000, 20:52:14.381, 1541901134381
86, -187500.02, -187500.02, -187500.02, -182310.80, -185289.39, -187500.02, -186604.06, -187500.02, 0.000, 0.000, 0.000, 20:52:14.381, 1541901134381
87, -187500.02, -187500.02, -187500.02, -182340.55, -185317.66, -187500.02, -186631.84, -187500.02, 0.000, 0.000, 0.000, 20:52:14.381, 1541901134381
88, -187500.02, -187500.02, -187500.02, -183167.44, -186167.31, -187500.02, -187500.02, -187500.02, 0.000, 0.000, 0.000, 20:52:14.381, 1541901134381
89, -187500.02, -187500.02, -187500.02, -183031.86, -186032.88, -187500.02, -187369.61, -187500.02, 0.000, 0.000, 0.000, 20:52:14.381, 1541901134381
90, -187500.02, -187500.02, -187500.02, -182445.23, -185435.31, -187500.02, -186755.77, -187500.02, 0.000, 0.000, 0.000, 20:52:14.381, 1541901134381
91, -187500.02, -187500.02, -187500.02, -182202.56, -185184.13, -187500.02, -186499.28, -187500.02, 0.000, 0.000, 0.000, 20:52:14.382, 1541901134382
92, -187500.02, -187500.02, -187500.02, -183100.61, -186105.42, -187500.02, -187447.94, -187500.02, 0.026, 0.904, 0.288, 20:52:14.382, 1541901134382
93, -187500.02, -187500.02, -187500.02, -183084.52, -186094.83, -187500.02, -187435.55, -187500.02, 0.000, 0.000, 0.000, 20:52:14.382, 1541901134382
94, -187500.02, -187500.02, -187500.02, -182573.67, -185576.69, -187500.02, -186899.30, -187500.02, 0.000, 0.000, 0.000, 20:52:14.382, 1541901134382
95, -187500.02, -187500.02, -187500.02, -182116.00, -185108.41, -187500.02, -186420.36, -187500.02, 0.000, 0.000, 0.000, 20:52:14.382, 1541901134382
96, -187500.02, -187500.02, -187500.02, -182990.63, -186002.73, -187500.02, -187341.30, -187500.02, 0.000, 0.000, 0.000, 20:52:14.382, 1541901134382
97, -187500.02, -187500.02, -187500.02, -183128.86, -186149.09, -187500.02, -187495.36, -187500.02, 0.000, 0.000, 0.000, 20:52:14.382, 1541901134382
98, -187500.02, -187500.02, -187500.02, -182687.89, -185707.83, -187500.02, -187037.58, -187500.02, 0.000, 0.000, 0.000, 20:52:14.382, 1541901134382
99, -187500.02, -187500.02, -187500.02, -181930.77, -185090.50, -187500.02, -186406.09, -187500.02, 0.000, 0.000, 0.000, 20:52:14.382, 1541901134382
100, -187500.02, -187500.02, -187500.02, -182854.58, -185835.44, -187500.02, -187170.42, -187500.02, 0.000, 0.000, 0.000, 20:52:14.382, 1541901134382
101, -187500.02, -187500.02, -187500.02, -183404.81, -186178.33, -187500.02, -187500.02, -187500.02, 0.000, 0.000, 0.000, 20:52:14.383, 1541901134383
102, -187500.02, -187500.02, -187500.02, -183043.48, -185810.22, -187500.02, -187144.83, -187500.02, 0.026, 0.902, 0.284, 20:52:14.383, 1541901134383
103, -187500.02, -187500.02, -187500.02, -182374.83, -185128.16, -187500.02, -186445.80, -187500.02, 0.000, 0.000, 0.000, 20:52:14.383, 1541901134383
104, -187500.02, -187500.02, -187500.02, -182898.31, -185661.34, -187500.02, -186991.25, -187500.02, 0.000, 0.000, 0.000, 20:52:14.383, 1541901134383
105, -187500.02, -187500.02, -187500.02, -183430.08, -186211.33, -187500.02, -187500.02, -187500.02, 0.000, 0.000, 0.000, 20:52:14.848, 1541901134848
106, -187500.02, -187500.02, -187500.02, -183132.47, -185911.33, -187500.02, -187249.66, -187500.02, 0.000, 0.000, 0.000, 20:52:14.848, 1541901134848
107, -187500.02, -187500.02, -187500.02, -182450.89, -185216.56, -187500.02, -186536.19, -187500.02, 0.000, 0.000, 0.000, 20:52:14.850, 1541901134850
108, -187500.02, -187500.02, -187500.02, -182701.14, -185470.03, -187500.02, -186795.28, -187500.02, 0.000, 0.000, 0.000, 20:52:14.853, 1541901134853
109, -187500.02, -187500.02, -187500.02, -183423.34, -186214.08, -187500.02, -187500.02, -187500.02, 0.000, 0.000, 0.000, 20:52:14.854, 1541901134854
110, -187500.02, -187500.02, -187500.02, -183204.22, -185993.06, -187500.02, -187336.53, -187500.02, 0.000, 0.000, 0.000, 20:52:14.855, 1541901134855
111, -187500.02, -187500.02, -187500.02, -182557.33, -185333.59, -187500.02, -186658.86, -187500.02, 0.000, 0.000, 0.000, 20:52:14.855, 1541901134855
112, -187500.02, -187500.02, -187500.02, -182524.50, -185298.28, -187500.02, -186621.33, -187500.02, 0.020, 0.900, 0.286, 20:52:14.856, 1541901134856
113, -187500.02, -187500.02, -187500.02, -183381.44, -186178.42, -187500.02, -187500.02, -187500.02, 0.000, 0.000, 0.000, 20:52:14.857, 1541901134857
114, -187500.02, -187500.02, -187500.02, -183256.56, -186054.84, -187500.02, -187403.59, -187500.02, 0.000, 0.000, 0.000, 20:52:14.857, 1541901134857
115, -187500.02, -187500.02, -187500.02, -182665.27, -185453.80, -187500.02, -186783.84, -187500.02, 0.000, 0.000, 0.000, 20:52:14.857, 1541901134857
116, -187500.02, -187500.02, -187500.02, -182377.94, -185158.09, -187500.02, -186480.55, -187500.02, 0.000, 0.000, 0.000, 20:52:14.858, 1541901134858
117, -187500.02, -187500.02, -187500.02, -183287.05, -186091.08, -187500.02, -187440.69, -187500.02, 0.000, 0.000, 0.000, 20:52:14.858, 1541901134858
118, -187500.02, -187500.02, -187500.02, -183289.11, -186099.19, -187500.02, -187449.03, -187500.02, 0.000, 0.000, 0.000, 20:52:14.858, 1541901134858
119, -187500.02, -187500.02, -187500.02, -182763.59, -185565.66, -187500.02, -186898.06, -187500.02, 0.000, 0.000, 0.000, 20:52:14.858, 1541901134858
120, -187500.02, -187500.02, -187500.02, -182277.84, -185068.55, -187500.02, -186390.28, -187500.02, 0.000, 0.000, 0.000, 20:52:14.858, 1541901134858
121, -187500.02, -187500.02, -187500.02, -183137.20, -185946.95, -187500.02, -187291.91, -187500.02, 0.000, 0.000, 0.000, 20:52:14.859, 1541901134859
122, -187500.02, -187500.02, -187500.02, -183310.09, -186128.95, -187500.02, -187482.25, -187500.02, 0.020, 0.904, 0.296, 20:52:14.859, 1541901134859
123, -187500.02, -187500.02, -187500.02, -182857.36, -185668.94, -187500.02, -187006.36, -187500.02, 0.000, 0.000, 0.000, 20:52:14.859, 1541901134859
124, -187500.02, -187500.02, -187500.02, -182245.81, -185043.05, -187500.02, -186367.55, -187500.02, 0.000, 0.000, 0.000, 20:52:14.860, 1541901134860
125, -187500.02, -187500.02, -187500.02, -182953.14, -185765.61, -187500.02, -187107.31, -187500.02, 0.000, 0.000, 0.000, 20:52:14.860, 1541901134860
126, -187500.02, -187500.02, -187500.02, -183327.80, -186154.31, -187500.02, -187500.02, -187500.02, 0.000, 0.000, 0.000, 20:52:14.860, 1541901134860
127, -187500.02, -187500.02, -187500.02, -182948.95, -185770.80, -187500.02, -187113.17, -187500.02, 0.000, 0.000, 0.000, 20:52:14.860, 1541901134860
128, -187500.02, -187500.02, -187500.02, -182279.78, -185088.80, -187500.02, -186415.06, -187500.02, 0.000, 0.000, 0.000, 20:52:14.860, 1541901134860
129, -187500.02, -187500.02, -187500.02, -182758.63, -185575.23, -187500.02, -186913.39, -187500.02, 0.000, 0.000, 0.000, 20:52:14.861, 1541901134861
130, -187500.02, -187500.02, -187500.02, -183340.22, -186173.84, -187500.02, -187500.02, -187500.02, 0.000, 0.000, 0.000, 20:52:14.861, 1541901134861
131, -187500.02, -187500.02, -187500.02, -183031.09, -185861.75, -187500.02, -187209.36, -187500.02, 0.000, 0.000, 0.000, 20:52:14.861, 1541901134861
132, -187500.02, -187500.02, -187500.02, -182350.05, -185168.53, -187500.02, -186498.88, -187500.02, 0.016, 0.902, 0.286, 20:52:14.861, 1541901134861
133, -187500.02, -187500.02, -187500.02, -182553.02, -185374.34, -187500.02, -186708.27, -187500.02, 0.000, 0.000, 0.000, 20:52:14.861, 1541901134861
134, -187500.02, -187500.02, -187500.02, -183312.89, -186156.16, -187500.02, -187500.02, -187500.02, 0.000, 0.000, 0.000, 20:52:14.861, 1541901134861
135, -187500.02, -187500.02, -187500.02, -183086.08, -185928.53, -187500.02, -187277.81, -187500.02, 0.000, 0.000, 0.000, 20:52:14.862, 1541901134862
136, -187500.02, -187500.02, -187500.02, -182434.39, -185264.80, -187500.02, -186597.59, -187500.02, 0.000, 0.000, 0.000, 20:52:14.862, 1541901134862
137, -187500.02, -187500.02, -187500.02, -182354.17, -185180.75, -187500.02, -186510.75, -187500.02, 0.000, 0.000, 0.000, 20:52:14.862, 1541901134862
138, -187500.02, -187500.02, -187500.02, -183236.78, -186087.44, -187500.02, -187443.11, -187500.02, 0.000, 0.000, 0.000, 20:52:14.862, 1541901134862
139, -187500.02, -187500.02, -187500.02, -183127.72, -185980.41, -187500.02, -187332.73, -187500.02, 0.000, 0.000, 0.000, 20:52:14.862, 1541901134862
140, -187500.02, -187500.02, -187500.02, -182544.17, -185388.11, -187500.02, -186723.53, -187500.02, 0.000, 0.000, 0.000, 20:52:14.863, 1541901134863
141, -187500.02, -187500.02, -187500.02, -182226.72, -185062.47, -187500.02, -186391.44, -187500.02, 0.000, 0.000, 0.000, 20:52:14.863, 1541901134863
142, -187500.02, -187500.02, -187500.02, -183145.41, -186002.58, -187500.02, -187357.64, -187500.02, 0.000, 0.000, 0.000, 20:52:14.863, 1541901134863
143, -187500.02, -187500.02, -187500.02, -183182.38, -186046.02, -187500.02, -187403.88, -187500.02, 0.012, 0.904, 0.284, 20:52:14.863, 1541901134863
144, -187500.02, -187500.02, -187500.02, -182663.45, -185518.44, -187500.02, -186859.89, -187500.02, 0.000, 0.000, 0.000, 20:52:14.863, 1541901134863
145, -187500.02, -187500.02, -187500.02, -182155.63, -184999.34, -187500.02, -186330.17, -187500.02, 0.000, 0.000, 0.000, 20:52:14.863, 1541901134863
146, -187500.02, -187500.02, -187500.02, -182997.61, -185861.23, -187500.02, -187212.33, -187500.02, 0.000, 0.000, 0.000, 20:52:14.864, 1541901134864
147, -187500.02, -187500.02, -187500.02, -183213.44, -186087.98, -187500.02, -187448.23, -187500.02, 0.000, 0.000, 0.000, 20:52:14.864, 1541901134864
148, -187500.02, -187500.02, -187500.02, -182763.48, -185631.61, -187500.02, -186975.58, -187500.02, 0.000, 0.000, 0.000, 20:52:14.864, 1541901134864
149, -187500.02, -187500.02, -187500.02, -182140.27, -184995.41, -187500.02, -186326.50, -187500.02, 0.000, 0.000, 0.000, 20:52:14.864, 1541901134864
150, -187500.02, -187500.02, -187500.02, -182805.64, -185674.14, -187500.02, -187019.47, -187500.02, 0.000, 0.000, 0.000, 20:52:14.864, 1541901134864
151, -187500.02, -187500.02, -187500.02, -183228.23, -186111.17, -187500.02, -187472.39, -187500.02, 0.000, 0.000, 0.000, 20:52:14.865, 1541901134865
152, -187500.02, -187500.02, -187500.02, -182849.75, -185728.58, -187500.02, -187075.42, -187500.02, 0.000, 0.000, 0.000, 20:52:14.865, 1541901134865
153, -187500.02, -187500.02, -187500.02, -182053.33, -185037.69, -187500.02, -186370.73, -187500.02, 0.014, 0.900, 0.284, 20:52:14.865, 1541901134865
154, -187500.02, -187500.02, -187500.02, -182520.58, -185457.20, -187500.02, -186797.80, -187500.02, 0.000, 0.000, 0.000, 20:52:14.865, 1541901134865
155, -187500.02, -187500.02, -187500.02, -183461.84, -186097.91, -187500.02, -187459.02, -187500.02, 0.000, 0.000, 0.000, 20:52:14.865, 1541901134865
156, -187500.02, -187500.02, -187500.02, -183179.22, -185796.05, -187500.02, -187146.55, -187500.02, 0.000, 0.000, 0.000, 20:52:14.865, 1541901134865
157, -187500.02, -187500.02, -187500.02, -182509.08, -185114.06, -187500.02, -186449.23, -187500.02, 0.000, 0.000, 0.000, 20:52:14.866, 1541901134866
158, -187500.02, -187500.02, -187500.02, -182652.09, -185258.20, -187500.02, -186596.94, -187500.02, 0.000, 0.000, 0.000, 20:52:14.866, 1541901134866
159, -187500.02, -187500.02, -187500.02, -183454.58, -186082.89, -187500.02, -187444.25, -187500.02, 0.000, 0.000, 0.000, 20:52:14.866, 1541901134866
160, -187500.02, -187500.02, -187500.02, -183250.72, -185878.94, -187500.02, -187232.83, -187500.02, 0.000, 0.000, 0.000, 20:52:14.867, 1541901134867
161, -187500.02, -187500.02, -187500.02, -182617.66, -185234.39, -187500.02, -186573.61, -187500.02, 0.000, 0.000, 0.000, 20:52:14.867, 1541901134867
162, -187500.02, -187500.02, -187500.02, -182491.73, -185104.53, -187500.02, -186441.23, -187500.02, 0.000, 0.000, 0.000, 20:52:14.867, 1541901134867
163, -187500.02, -187500.02, -187500.02, -183398.47, -186034.45, -187500.02, -187395.39, -187500.02, 0.016, 0.900, 0.288, 20:52:14.867, 1541901134867
164, -187500.02, -187500.02, -187500.02, -183315.17, -185953.59, -187500.02, -187312.17, -187500.02, 0.000, 0.000, 0.000, 20:52:14.867, 1541901134867
165, -187500.02, -187500.02, -187500.02, -182740.34, -185370.67, -187500.02, -186713.84, -187500.02, 0.000, 0.000, 0.000, 20:52:14.868, 1541901134868
166, -187500.02, -187500.02, -187500.02, -182379.20, -185001.30, -187500.02, -186337.48, -187500.02, 0.000, 0.000, 0.000, 20:52:14.868, 1541901134868
167, -187500.02, -187500.02, -187500.02, -183288.05, -185932.02, -187500.02, -187289.34, -187500.02, 0.000, 0.000, 0.000, 20:52:14.868, 1541901134868
168, -187500.02, -187500.02, -187500.02, -183356.16, -186006.72, -187500.02, -187367.17, -187500.02, 0.000, 0.000, 0.000, 20:52:14.868, 1541901134868
169, -187500.02, -187500.02, -187500.02, -182840.44, -185481.98, -187500.02, -186828.75, -187500.02, 0.000, 0.000, 0.000, 20:52:14.868, 1541901134868
170, -187500.02, -187500.02, -187500.02, -182304.33, -184935.22, -187500.02, -186272.33, -187500.02, 0.000, 0.000, 0.000, 20:52:14.868, 1541901134868
171, -187500.02, -187500.02, -187500.02, -183103.83, -185751.59, -187500.02, -187105.98, -187500.02, 0.000, 0.000, 0.000, 20:52:14.869, 1541901134869
172, -187500.02, -187500.02, -187500.02, -183350.55, -186010.03, -187500.02, -187373.03, -187500.02, 0.000, 0.000, 0.000, 20:52:14.869, 1541901134869
173, -187500.02, -187500.02, -187500.02, -182893.02, -185546.72, -187500.02, -186895.11, -187500.02, 0.012, 0.900, 0.286, 20:52:14.869, 1541901134869
174, -187500.02, -187500.02, -187500.02, -182244.56, -184884.91, -187500.02, -186222.53, -187500.02, 0.000, 0.000, 0.000, 20:52:14.869, 1541901134869
175, -187500.02, -187500.02, -187500.02, -182840.59, -185492.11, -187500.02, -186840.73, -187500.02, 0.000, 0.000, 0.000, 20:52:14.869, 1541901134869
176, -187500.02, -187500.02, -187500.02, -183300.61, -185967.20, -187500.02, -187328.88, -187500.02, 0.000, 0.000, 0.000, 20:52:14.869, 1541901134869
177, -187500.02, -187500.02, -187500.02, -182931.56, -185594.39, -187500.02, -186944.53, -187500.02, 0.000, 0.000, 0.000, 20:52:14.870, 1541901134870
178, -187500.02, -187500.02, -187500.02, -182270.48, -184921.81, -187500.02, -186260.39, -187500.02, 0.000, 0.000, 0.000, 20:52:14.870, 1541901134870
179, -187500.02, -187500.02, -187500.02, -182645.86, -185302.64, -187500.02, -186648.75, -187500.02, 0.000, 0.000, 0.000, 20:52:14.870, 1541901134870
180, -187500.02, -187500.02, -187500.02, -183329.36, -186004.34, -187500.02, -187369.45, -187500.02, 0.000, 0.000, 0.000, 20:52:14.870, 1541901134870
181, -187500.02, -187500.02, -187500.02, -183053.09, -185727.55, -187500.02, -187084.50, -187500.02, 0.000, 0.000, 0.000, 20:52:14.870, 1541901134870
182, -187500.02, -187500.02, -187500.02, -182404.36, -185068.09, -187500.02, -186412.11, -187500.02, 0.000, 0.000, 0.000, 20:52:14.870, 1541901134870
183, -187500.02, -187500.02, -187500.02, -182498.05, -185161.89, -187500.02, -186506.77, -187500.02, 0.012, 0.888, 0.286, 20:52:14.870, 1541901134870
184, -187500.02, -187500.02, -187500.02, -183330.14, -186015.70, -187500.02, -187382.53, -187500.02, 0.000, 0.000, 0.000, 20:52:14.871, 1541901134871
185, -187500.02, -187500.02, -187500.02, -183144.80, -185830.41, -187500.02, -187192.02, -187500.02, 0.000, 0.000, 0.000, 20:52:14.871, 1541901134871
186, -187500.02, -187500.02, -187500.02, -182533.44, -185209.03, -187500.02, -186556.30, -187500.02, 0.000, 0.000, 0.000, 20:52:14.871, 1541901134871
187, -187500.02, -187500.02, -187500.02, -182368.75, -185039.94, -187500.02, -186384.06, -187500.02, 0.000, 0.000, 0.000, 20:52:14.871, 1541901134871
188, -187500.02, -187500.02, -187500.02, -183292.64, -185986.27, -187500.02, -187353.25, -187500.02, 0.000, 0.000, 0.000, 20:52:14.871, 1541901134871
189, -187500.02, -187500.02, -187500.02, -183251.47, -185949.13, -187500.02, -187314.63, -187500.02, 0.000, 0.000, 0.000, 20:52:14.872, 1541901134872
190, -187500.02, -187500.02, -187500.02, -182714.03, -185404.56, -187500.02, -186755.02, -187500.02, 0.000, 0.000, 0.000, 20:52:14.872, 1541901134872
191, -187500.02, -187500.02, -187500.02, -182345.33, -185027.47, -187500.02, -186371.28, -187500.02, 0.000, 0.000, 0.000, 20:52:14.873, 1541901134873
192, -187500.02, -187500.02, -187500.02, -183260.20, -185963.63, -187500.02, -187330.55, -187500.02, 0.000, 0.000, 0.000, 20:52:14.873, 1541901134873
193, -187500.02, -187500.02, -187500.02, -183391.63, -186101.98, -187500.02, -187475.20, -187500.02, 0.012, 0.880, 0.286, 20:52:14.873, 1541901134873
194, -187500.02, -187500.02, -187500.02, -182920.77, -185624.02, -187500.02, -186981.50, -187500.02, 0.000, 0.000, 0.000, 20:52:14.873, 1541901134873
195, -187500.02, -187500.02, -187500.02, -182397.38, -185089.00, -187500.02, -186436.36, -187500.02, 0.000, 0.000, 0.000, 20:52:14.873, 1541901134873
196, -187500.02, -187500.02, -187500.02, -183189.95, -185899.63, -187500.02, -187267.31, -187500.02, 0.000, 0.000, 0.000, 20:52:14.873, 1541901134873
197, -187500.02, -187500.02, -187500.02, -183517.77, -186240.89, -187500.02, -187500.02, -187500.02, 0.000, 0.000, 0.000, 20:52:14.874, 1541901134874
198, -187500.02, -187500.02, -187500.02, -183103.89, -185821.20, -187500.02, -187186.84, -187500.02, 0.000, 0.000, 0.000, 20:52:14.874, 1541901134874
199, -187500.02, -187500.02, -187500.02, -182487.75, -185192.42, -187500.02, -186541.59, -187500.02, 0.000, 0.000, 0.000, 20:52:14.874, 1541901134874
200, -187500.02, -187500.02, -187500.02, -183058.56, -185774.86, -187500.02, -187138.13, -187500.02, 0.000, 0.000, 0.000, 20:52:14.874, 1541901134874
201, -187500.02, -187500.02, -187500.02, -183576.95, -186310.72, -187500.02, -187500.02, -187500.02, 0.000, 0.000, 0.000, 20:52:14.875, 1541901134875
202, -187500.02, -187500.02, -187500.02, -183221.09, -185949.94, -187500.02, -187320.06, -187500.02, 0.000, 0.000, 0.000, 20:52:14.875, 1541901134875
203, -187500.02, -187500.02, -187500.02, -182558.41, -185273.52, -187500.02, -186626.27, -187500.02, 0.010, 0.888, 0.282, 20:52:14.875, 1541901134875
204, -187500.02, -187500.02, -187500.02, -182859.73, -185579.75, -187500.02, -186939.23, -187500.02, 0.000, 0.000, 0.000, 20:52:14.875, 1541901134875
205, -187500.02, -187500.02, -187500.02, -183576.08, -186317.31, -187500.02, -187500.02, -187500.02, 0.000, 0.000, 0.000, 20:52:14.876, 1541901134876
206, -187500.02, -187500.02, -187500.02, -183313.38, -186051.83, -187500.02, -187427.89, -187500.02, 0.000, 0.000, 0.000, 20:52:14.876, 1541901134876
207, -187500.02, -187500.02, -187500.02, -182674.30, -185401.23, -187500.02, -186757.33, -187500.02, 0.000, 0.000, 0.000, 20:52:14.876, 1541901134876
208, -187500.02, -187500.02, -187500.02, -182703.64, -185429.70, -187500.02, -186785.75, -187500.02, 0.000, 0.000, 0.000, 20:52:14.876, 1541901134876
209, -187500.02, -187500.02, -187500.02, -183562.83, -186312.13, -187500.02, -187500.02, -187500.02, 0.000, 0.000, 0.000, 20:52:14.876, 1541901134876
210, -187500.02, -187500.02, -187500.02, -183400.27, -186149.84, -187500.02, -187500.02, -187500.02, 0.000, 0.000, 0.000, 20:52:14.876, 1541901134876
211, -187500.02, -187500.02, -187500.02, -182796.63, -185535.98, -187500.02, -186896.42, -187500.02, 0.000, 0.000, 0.000, 20:52:14.876, 1541901134876
212, -187500.02, -187500.02, -187500.02, -182569.89, -185302.48, -187500.02, -186656.70, -187500.02, 0.000, 0.000, 0.000, 20:52:14.876, 1541901134876
213, -187500.02, -187500.02, -187500.02, -183489.94, -186246.89, -187500.02, -187500.02, -187500.02, 0.000, 0.000, 0.000, 20:52:14.877, 1541901134877
214, -187500.02, -187500.02, -187500.02, -183466.95, -186229.86, -187500.02, -187500.02, -187500.02, 0.010, 0.900, 0.290, 20:52:14.877, 1541901134877
215, -187500.02, -187500.02, -187500.02, -182918.48, -185671.17, -187500.02, -187037.47, -187500.02, 0.000, 0.000, 0.000, 20:52:14.877, 1541901134877
216, -187500.02, -187500.02, -187500.02, -182479.88, -185221.05, -187500.02, -186576.89, -187500.02, 0.000, 0.000, 0.000, 20:52:14.877, 1541901134877
217, -187500.02, -187500.02, -187500.02, -183353.81, -186115.17, -187500.02, -187498.36, -187500.02, 0.000, 0.000, 0.000, 20:52:14.877, 1541901134877
218, -187500.02, -187500.02, -187500.02, -183514.91, -186285.91, -187500.02, -187500.02, -187500.02, 0.000, 0.000, 0.000, 20:52:14.877, 1541901134877
219, -187500.02, -187500.02, -187500.02, -183043.88, -185807.27, -187500.02, -187179.56, -187500.02, 0.000, 0.000, 0.000, 20:52:14.877, 1541901134877
220, -187500.02, -187500.02, -187500.02, -182479.13, -185229.66, -187500.02, -186587.13, -187500.02, 0.000, 0.000, 0.000, 20:52:14.878, 1541901134878
221, -187500.02, -187500.02, -187500.02, -183216.91, -185983.73, -187500.02, -187363.67, -187500.02, 0.000, 0.000, 0.000, 20:52:14.878, 1541901134878
222, -187500.02, -187500.02, -187500.02, -183587.70, -186369.16, -187500.02, -187500.02, -187500.02, 0.000, 0.000, 0.000, 20:52:14.878, 1541901134878
223, -187500.02, -187500.02, -187500.02, -183183.38, -185959.56, -187500.02, -187338.59, -187500.02, 0.000, 0.000, 0.000, 20:52:14.878, 1541901134878
224, -187500.02, -187500.02, -187500.02, -182545.42, -185307.44, -187500.02, -186668.06, -187500.02, 0.014, 0.910, 0.292, 20:52:14.878, 1541901134878
225, -187500.02, -187500.02, -187500.02, -183056.11, -185828.34, -187500.02, -187202.89, -187500.02, 0.000, 0.000, 0.000, 20:52:14.878, 1541901134878
226, -187500.02, -187500.02, -187500.02, -183634.27, -186425.48, -187500.02, -187500.02, -187500.02, 0.000, 0.000, 0.000, 20:52:15.324, 1541901135324
227, -187500.02, -187500.02, -187500.02, -183303.16, -186090.00, -187500.02, -187476.08, -187500.02, 0.000, 0.000, 0.000, 20:52:15.325, 1541901135325
228, -187500.02, -187500.02, -187500.02, -182640.81, -185413.91, -187500.02, -186778.95, -187500.02, 0.000, 0.000, 0.000, 20:52:15.325, 1541901135325
229, -187500.02, -187500.02, -187500.02, -182880.98, -185657.53, -187500.02, -187028.94, -187500.02, 0.000, 0.000, 0.000, 20:52:15.325, 1541901135325
230, -187500.02, -187500.02, -187500.02, -183647.31, -186447.36, -187500.02, -187500.02, -187500.02, 0.000, 0.000, 0.000, 20:52:15.325, 1541901135325
231, -187500.02, -187500.02, -187500.02, -183408.17, -186208.47, -187500.02, -187500.02, -187500.02, 0.000, 0.000, 0.000, 20:52:15.325, 1541901135325
232, -187500.02, -187500.02, -187500.02, -182768.55, -185557.06, -187500.02, -186925.16, -187500.02, 0.000, 0.000, 0.000, 20:52:15.325, 1541901135325
233, -187500.02, -187500.02, -187500.02, -182732.77, -185518.16, -187500.02, -186884.88, -187500.02, 0.000, 0.000, 0.000, 20:52:15.325, 1541901135325
234, -187500.02, -187500.02, -187500.02, -183627.95, -186437.50, -187500.02, -187500.02, -187500.02, 0.014, 0.906, 0.292, 20:52:15.326, 1541901135326
235, -187500.02, -187500.02, -187500.02, -183500.33, -186311.53, -187500.02, -187500.02, -187500.02, 0.000, 0.000, 0.000, 20:52:15.326, 1541901135326
236, -187500.02, -187500.02, -187500.02, -182900.81, -185700.77, -187500.02, -187074.53, -187500.02, 0.000, 0.000, 0.000, 20:52:15.326, 1541901135326
237, -187500.02, -187500.02, -187500.02, -182614.53, -185406.81, -187500.02, -186772.11, -187500.02, 0.000, 0.000, 0.000, 20:52:15.326, 1541901135326
238, -187500.02, -187500.02, -187500.02, -183538.80, -186354.69, -187500.02, -187500.02, -187500.02, 0.000, 0.000, 0.000, 20:52:15.326, 1541901135326
239, -187500.02, -187500.02, -187500.02, -183559.16, -186379.67, -187500.02, -187500.02, -187500.02, 0.000, 0.000, 0.000, 20:52:15.326, 1541901135326
240, -187500.02, -187500.02, -187500.02, -183017.39, -185827.91, -187500.02, -187208.39, -187500.02, 0.000, 0.000, 0.000, 20:52:15.326, 1541901135326
241, -187500.02, -187500.02, -187500.02, -182538.91, -185338.22, -187500.02, -186703.36, -187500.02, 0.000, 0.000, 0.000, 20:52:15.327, 1541901135327
242, -187500.02, -187500.02, -187500.02, -183395.41, -186215.58, -187500.02, -187500.02, -187500.02, 0.000, 0.000, 0.000, 20:52:15.327, 1541901135327
243, -187500.02, -187500.02, -187500.02, -183602.39, -186434.53, -187500.02, -187500.02, -187500.02, 0.000, 0.000, 0.000, 20:52:15.327, 1541901135327
244, -187500.02, -187500.02, -187500.02, -183126.70, -185949.81, -187500.02, -187334.70, -187500.02, 0.016, 0.904, 0.282, 20:52:15.327, 1541901135327
245, -187500.02, -187500.02, -187500.02, -182528.05, -185338.02, -187500.02, -186705.08, -187500.02, 0.000, 0.000, 0.000, 20:52:15.327, 1541901135327
246, -187500.02, -187500.02, -187500.02, -183223.48, -186047.63, -187500.02, -187437.86, -187500.02, 0.000, 0.000, 0.000, 20:52:15.327, 1541901135327
247, -187500.02, -187500.02, -187500.02, -183646.64, -186485.94, -187500.02, -187500.02, -187500.02, 0.000, 0.000, 0.000, 20:52:15.327, 1541901135327
248, -187500.02, -187500.02, -187500.02, -183243.55, -186076.97, -187500.02, -187470.36, -187500.02, 0.000, 0.000, 0.000, 20:52:15.328, 1541901135328
249, -187500.02, -187500.02, -187500.02, -182580.83, -185399.59, -187500.02, -186770.66, -187500.02, 0.000, 0.000, 0.000, 20:52:15.328, 1541901135328
250, -187500.02, -187500.02, -187500.02, -183036.28, -185862.95, -187500.02, -187247.39, -187500.02, 0.000, 0.000, 0.000, 20:52:15.328, 1541901135328
251, -187500.02, -187500.02, -187500.02, -183669.06, -186517.25, -187500.02, -187500.02, -187500.02, 0.000, 0.000, 0.000, 20:52:15.328, 1541901135328
252, -187500.02, -187500.02, -187500.02, -183346.56, -186190.73, -187500.02, -187500.02, -187500.02, 0.000, 0.000, 0.000, 20:52:15.328, 1541901135328
253, -187500.02, -187500.02, -187500.02, -182675.34, -185507.17, -187500.02, -186881.83, -187500.02, 0.000, 0.000, 0.000, 20:52:15.328, 1541901135328
254, -187500.02, -187500.02, -187500.02, -182858.20, -185692.39, -187500.02, -187071.16, -187500.02, 0.012, 0.904, 0.286, 20:52:15.329, 1541901135329
255, -187500.02, -187500.02, -187500.02, -183670.72, -186528.94, -187500.02, -187500.02, -187500.02, 0.000, 0.000, 0.000, 20:52:15.329, 1541901135329
0, -187500.02, -187500.02, -187500.02, -183446.48, -186303.14, -187500.02, -187500.02, -187500.02, 0.000, 0.000, 0.000, 20:52:15.329, 1541901135329
1, -187500.02, -187500.02, -187500.02, -182800.25, -185643.88, -187500.02, -187024.81, -187500.02, 0.000, 0.000, 0.000, 20:52:15.329, 1541901135329
2, -187500.02, -187500.02, -187500.02, -182710.17, -185549.33, -187500.02, -186926.05, -187500.02, 0.000, 0.000, 0.000, 20:52:15.330, 1541901135330
3, -187500.02, -187500.02, -187500.02, -183631.48, -186494.48, -187500.02, -187500.02, -187500.02, 0.000, 0.000, 0.000, 20:52:15.330, 1541901135330
4, -187500.02, -187500.02, -187500.02, -183532.36, -186397.41, -187500.02, -187500.02, -187500.02, 0.000, 0.000, 0.000, 20:52:15.330, 1541901135330
5, -187500.02, -187500.02, -187500.02, -182935.83, -185791.31, -187500.02, -187177.08, -187500.02, 0.000, 0.000, 0.000, 20:52:15.330, 1541901135330
6, -187500.02, -187500.02, -187500.02, -182608.77, -185456.48, -187500.02, -186830.25, -187500.02, 0.000, 0.000, 0.000, 20:52:15.330, 1541901135330
7, -187500.02, -187500.02, -187500.02, -183540.92, -186411.78, -187500.02, -187500.02, -187500.02, 0.000, 0.000, 0.000, 20:52:15.331, 1541901135331
8, -187500.02, -187500.02, -187500.02, -183603.80, -186481.42, -187500.02, -187500.02, -187500.02, 0.012, 0.906, 0.292, 20:52:15.332, 1541901135332
9, -187500.02, -187500.02, -187500.02, -183068.69, -185936.33, -187500.02, -187329.38, -187500.02, 0.000, 0.000, 0.000, 20:52:15.332, 1541901135332
10, -187500.02, -187500.02, -187500.02, -182566.61, -185421.38, -187500.02, -186797.81, -187500.02, 0.000, 0.000, 0.000, 20:52:15.333, 1541901135333
11, -187500.02, -187500.02, -187500.02, -183402.72, -186276.75, -187500.02, -187500.02, -187500.02, 0.000, 0.000, 0.000, 20:52:15.333, 1541901135333
12, -187500.02, -187500.02, -187500.02, -183665.42, -186551.78, -187500.02, -187500.02, -187500.02, 0.000, 0.000, 0.000, 20:52:15.333, 1541901135333
13, -187500.02, -187500.02, -187500.02, -183199.34, -186078.73, -187500.02, -187481.11, -187500.02, 0.000, 0.000, 0.000, 20:52:15.333, 1541901135333
14, -187500.02, -187500.02, -187500.02, -182588.47, -185453.83, -187500.02, -186834.00, -187500.02, 0.000, 0.000, 0.000, 20:52:15.333, 1541901135333
15, -187500.02, -187500.02, -187500.02, -183236.39, -186114.86, -187500.02, -187500.02, -187500.02, 0.000, 0.000, 0.000, 20:52:15.334, 1541901135334
16, -187500.02, -187500.02, -187500.02, -183711.95, -186608.30, -187500.02, -187500.02, -187500.02, 0.000, 0.000, 0.000, 20:52:15.334, 1541901135334
17, -187500.02, -187500.02, -187500.02, -183315.13, -186205.73, -187500.02, -187500.02, -187500.02, 0.000, 0.000, 0.000, 20:52:15.334, 1541901135334
18, -187500.02, -187500.02, -187500.02, -182652.42, -185528.34, -187500.02, -186912.44, -187500.02, 0.012, 0.900, 0.288, 20:52:15.336, 1541901135336
19, -187500.02, -187500.02, -187500.02, -183049.77, -185933.34, -187500.02, -187330.17, -187500.02, 0.000, 0.000, 0.000, 20:52:15.336, 1541901135336
20, -187500.02, -187500.02, -187500.02, -183730.75, -186637.22, -187500.02, -187500.02, -187500.02, 0.000, 0.000, 0.000, 20:52:15.337, 1541901135337
21, -187500.02, -187500.02, -187500.02, -183423.59, -186326.14, -187500.02, -187500.02, -187500.02, 0.000, 0.000, 0.000, 20:52:15.337, 1541901135337
22, -187500.02, -187500.02, -187500.02, -182759.33, -185648.75, -187500.02, -187038.44, -187500.02, 0.000, 0.000, 0.000, 20:52:15.337, 1541901135337
23, -187500.02, -187500.02, -187500.02, -182883.06, -185772.25, -187500.02, -187163.98, -187500.02, 0.000, 0.000, 0.000, 20:52:15.338, 1541901135338
24, -187500.02, -187500.02, -187500.02, -183725.16, -186640.34, -187500.02, -187500.02, -187500.02, 0.000, 0.000, 0.000, 20:52:15.338, 1541901135338
25, -187500.02, -187500.02, -187500.02, -183519.94, -186434.70, -187500.02, -187500.02, -187500.02, 0.000, 0.000, 0.000, 20:52:15.338, 1541901135338
26, -187500.02, -187500.02, -187500.02, -182883.59, -185785.34, -187500.02, -187181.53, -187500.02, 0.000, 0.000, 0.000, 20:52:15.339, 1541901135339
27, -187500.02, -187500.02, -187500.02, -182743.81, -185639.44, -187500.02, -187028.13, -187500.02, 0.000, 0.000, 0.000, 20:52:15.339, 1541901135339
28, -187500.02, -187500.02, -187500.02, -183678.00, -186598.88, -187500.02, -187500.02, -187500.02, 0.000, 0.000, 0.000, 20:52:15.340, 1541901135340
29, -187500.02, -187500.02, -187500.02, -183611.34, -186535.98, -187500.02, -187500.02, -187500.02, 0.012, 0.896, 0.284, 20:52:15.340, 1541901135340
30, -187500.02, -187500.02, -187500.02, -183021.58, -185935.48, -187500.02, -187339.38, -187500.02, 0.000, 0.000, 0.000, 20:52:15.340, 1541901135340
31, -187500.02, -187500.02, -187500.02, -182657.56, -185561.81, -187500.02, -186949.81, -187500.02, 0.000, 0.000, 0.000, 20:52:15.340, 1541901135340
32, -187500.02, -187500.02, -187500.02, -183577.16, -186504.83, -187500.02, -187500.02, -187500.02, 0.000, 0.000, 0.000, 20:52:15.340, 1541901135340
33, -187500.02, -187500.02, -187500.02, -183678.94, -186614.06, -187500.02, -187500.02, -187500.02, 0.000, 0.000, 0.000, 20:52:15.340, 1541901135340
34, -187500.02, -187500.02, -187500.02, -183146.03, -186070.80, -187500.02, -187481.48, -187500.02, 0.000, 0.000, 0.000, 20:52:15.340, 1541901135340
35, -187500.02, -187500.02, -187500.02, -182619.27, -185530.61, -187500.02, -186920.03, -187500.02, 0.000, 0.000, 0.000, 20:52:15.342, 1541901135342
36, -187500.02, -187500.02, -187500.02, -183421.88, -186351.89, -187500.02, -187500.02, -187500.02, 0.000, 0.000, 0.000, 20:52:15.342, 1541901135342
37, -187500.02, -187500.02, -187500.02, -183733.59, -186678.72, -187500.02, -187500.02, -187500.02, 0.000, 0.000, 0.000, 20:52:15.342, 1541901135342
38, -187500.02, -187500.02, -187500.02, -183271.48, -186209.25, -187500.02, -187500.02, -187500.02, 0.000, 0.000, 0.000, 20:52:15.342, 1541901135342
39, -187500.02, -187500.02, -187500.02, -182646.80, -185570.53, -187500.02, -186963.53, -187500.02, 0.012, 0.902, 0.282, 20:52:15.342, 1541901135342
40, -187500.02, -187500.02, -187500.02, -183248.80, -186186.31, -187500.02, -187500.02, -187500.02, 0.000, 0.000, 0.000, 20:52:15.342, 1541901135342
41, -187500.02, -187500.02, -187500.02, -183779.34, -186736.48, -187500.02, -187500.02, -187500.02, 0.000, 0.000, 0.000, 20:52:15.342, 1541901135342
