%OpenBCI Raw EEG Data
%Number of channels = 8
%Sample Rate = 250.0 Hz
%First Column = SampleIndex
%Last Column = Timestamp 
%Other Columns = EEG data in microvolts followed by Accel Data (in G) interleaved with Aux Data
0, 0.00, 0.00, 0.00, 0.00, 0.00, 0.00, 0.00, 0.00, 0.000, 0.000, 0.000, 22:54:54.444, 1541908494444
1, -244.95, 14720.84, 187500.00, 187500.00, -187500.02, -187500.02, -187500.02, -187500.02, 0.208, 0.752, 0.608, 22:54:54.922, 1541908494922
2, -167.75, 14580.31, 187500.00, 187500.00, -187500.02, -187500.02, -187500.02, -187500.02, 0.000, 0.000, 0.000, 22:54:54.923, 1541908494923
3, 74.52, 14904.97, 187500.00, 187500.00, -187500.02, -187500.02, -187500.02, -187500.02, 0.000, 0.000, 0.000, 22:54:54.923, 1541908494923
4, -47.97, 14974.06, 187500.00, 187500.00, -187500.02, -187500.02, -187500.02, -187500.02, 0.000, 0.000, 0.000, 22:54:54.924, 1541908494924
5, -225.48, 14759.15, 187500.00, 187500.00, -187500.02, -187500.02, -187500.02, -187500.02, 0.000, 0.000, 0.000, 22:54:54.924, 1541908494924
6, -214.42, 14567.32, 187500.00, 187500.00, -187500.02, -187500.02, -187500.02, -187500.02, 0.000, 0.000, 0.000, 22:54:54.924, 1541908494924
7, 67.41, 14853.36, 187500.00, 187500.00, -187500.02, -187500.02, -187500.02, -187500.02, 0.000, 0.000, 0.000, 22:54:54.924, 1541908494924
8, -1.86, 14998.04, 187500.00, 187500.00, -187500.02, -187500.02, -187500.02, -187500.02, 0.176, 0.754, 0.604, 22:54:54.924, 1541908494924
9, -210.33, 14797.44, 187500.00, 187500.00, -187500.02, -187500.02, -187500.02, -187500.02, 0.000, 0.000, 0.000, 22:54:54.924, 1541908494924
10, -252.40, 14569.29, 187500.00, 187500.00, -187500.02, -187500.02, -187500.02, -187500.02, 0.000, 0.000, 0.000, 22:54:54.924, 1541908494924
11, 22.42, 14779.33, 187500.00, 187500.00, -187500.02, -187500.02, -187500.02, -187500.02, 0.000, 0.000, 0.000, 22:54:54.924, 1541908494924
12, 35.34, 15019.21, 187500.00, 187500.00, -187500.02, -187500.02, -187500.02, -187500.02, 0.000, 0.000, 0.000, 22:54:54.925, 1541908494925
13, -188.85, 14849.67, 187500.00, 187500.00, -187500.02, -187500.02, -187500.02, -187500.02, 0.000, 0.000, 0.000, 22:54:54.925, 1541908494925
14, -264.22, 14605.81, 187500.00, 187500.00, -187500.02, -187500.02, -187500.02, -187500.02, 0.000, 0.000, 0.000, 22:54:54.925, 1541908494925
15, -32.63, 14704.99, 187500.00, 187500.00, -187500.02, -187500.02, -187500.02, -187500.02, 0.000, 0.000, 0.000, 22:54:54.925, 1541908494925
16, 51.50, 15004.12, 187500.00, 187500.00, -187500.02, -187500.02, -187500.02, -187500.02, 0.000, 0.000, 0.000, 22:54:54.925, 1541908494925
17, -162.54, 14886.51, 187500.00, 187500.00, -187500.02, -187500.02, -187500.02, -187500.02, 0.170, 0.764, 0.606, 22:54:54.925, 1541908494925
18, -278.03, 14630.24, 187500.00, 187500.00, -187500.02, -187500.02, -187500.02, -187500.02, 0.000, 0.000, 0.000, 22:54:54.925, 1541908494925
19, -93.36, 14628.72, 187500.00, 187500.00, -187500.02, -187500.02, -187500.02, -187500.02, 0.000, 0.000, 0.000, 22:54:54.926, 1541908494926
20, 77.18, 14973.70, 187500.00, 187500.00, -187500.02, -187500.02, -187500.02, -187500.02, 0.000, 0.000, 0.000, 22:54:54.926, 1541908494926
21, -123.49, 14909.55, 187500.00, 187500.00, -187500.02, -187500.02, -187500.02, -187500.02, 0.000, 0.000, 0.000, 22:54:54.926, 1541908494926
22, -273.18, 14675.98, 187500.00, 187500.00, -187500.02, -187500.02, -187500.02, -187500.02, 0.000, 0.000, 0.000, 22:54:54.926, 1541908494926
23, -158.85, 14589.52, 187500.00, 187500.00, -187500.02, -187500.02, -187500.02, -187500.02, 0.000, 0.000, 0.000, 22:54:54.926, 1541908494926
24, 52.84, 14934.83, 187500.00, 187500.00, -187500.02, -187500.02, -187500.02, -187500.02, 0.000, 0.000, 0.000, 22:54:54.926, 1541908494926
25, -92.45, 14952.27, 187500.00, 187500.00, -187500.02, -187500.02, -187500.02, -187500.02, 0.000, 0.000, 0.000, 22:54:54.926, 1541908494926
26, -255.26, 14728.66, 187500.00, 187500.00, -187500.02, -187500.02, -187500.02, -187500.02, 0.000, 0.000, 0.000, 22:54:54.926, 1541908494926
27, -186.03, 14583.91, 187500.00, 187500.00, -187500.02, -187500.02, -187500.02, -187500.02, 0.156, 0.762, 0.612, 22:54:54.926, 1541908494926
28, 83.44, 14903.61, 187500.00, 187500.00, -187500.02, -187500.02, -187500.02, -187500.02, 0.000, 0.000, 0.000, 22:54:54.926, 1541908494926
29, -34.80, 14975.31, 187500.00, 187500.00, -187500.02, -187500.02, -187500.02, -187500.02, 0.000, 0.000, 0.000, 22:54:54.926, 1541908494926
30, -258.10, 14745.54, 187500.00, 187500.00, -187500.02, -187500.02, -187500.02, -187500.02, 0.000, 0.000, 0.000, 22:54:54.927, 1541908494927
31, -268.96, 14534.24, 187500.00, 187500.00, -187500.02, -187500.02, -187500.02, -187500.02, 0.000, 0.000, 0.000, 22:54:54.927, 1541908494927
32, 1.14, 14776.63, 187500.00, 187500.00, -187500.02, -187500.02, -187500.02, -187500.02, 0.000, 0.000, 0.000, 22:54:54.927, 1541908494927
33, -67.75, 14925.91, 187500.00, 187500.00, -187500.02, -187500.02, -187500.02, -187500.02, 0.000, 0.000, 0.000, 22:54:54.927, 1541908494927
34, -248.39, 14737.40, 187500.00, 187500.00, -187500.02, -187500.02, -187500.02, -187500.02, 0.000, 0.000, 0.000, 22:54:54.936, 1541908494936
35, -329.44, 14498.55, 187500.00, 187500.00, -187500.02, -187500.02, -187500.02, -187500.02, 0.000, 0.000, 0.000, 22:54:54.936, 1541908494936
36, -151.88, 14631.14, 187500.00, 187500.00, -187500.02, -187500.02, -187500.02, -187500.02, 0.000, 0.000, 0.000, 22:54:54.936, 1541908494936
37, -136.21, 14861.54, 187500.00, 187500.00, -187500.02, -187500.02, -187500.02, -187500.02, 0.142, 0.760, 0.610, 22:54:54.936, 1541908494936
38, -361.18, 14703.16, 187500.00, 187500.00, -187500.02, -187500.02, -187500.02, -187500.02, 0.000, 0.000, 0.000, 22:54:54.936, 1541908494936
39, -451.30, 14443.12, 187500.00, 187500.00, -187500.02, -187500.02, -187500.02, -187500.02, 0.000, 0.000, 0.000, 22:54:54.936, 1541908494936
40, -234.29, 14533.62, 187500.00, 187500.00, -187500.02, -187500.02, -187500.02, -187500.02, 0.000, 0.000, 0.000, 22:54:54.936, 1541908494936
41, -136.70, 14838.58, 187500.00, 187500.00, -187500.02, -187500.02, -187500.02, -187500.02, 0.000, 0.000, 0.000, 22:54:54.936, 1541908494936
42, -329.08, 14717.48, 187500.00, 187500.00, -187500.02, -187500.02, -187500.02, -187500.02, 0.000, 0.000, 0.000, 22:54:54.937, 1541908494937
43, -430.76, 14476.35, 187500.00, 187500.00, -187500.02, -187500.02, -187500.02, -187500.02, 0.000, 0.000, 0.000, 22:54:54.937, 1541908494937
44, -254.25, 14472.26, 187500.00, 187500.00, -187500.02, -187500.02, -187500.02, -187500.02, 0.000, 0.000, 0.000, 22:54:54.937, 1541908494937
45, -79.84, 14815.65, 187500.00, 187500.00, -187500.02, -187500.02, -187500.02, -187500.02, 0.000, 0.000, 0.000, 22:54:54.937, 1541908494937
46, -273.18, 14758.48, 187500.00, 187500.00, -187500.02, -187500.02, -187500.02, -187500.02, 0.000, 0.000, 0.000, 22:54:54.937, 1541908494937
47, -409.28, 14526.87, 187500.00, 187500.00, -187500.02, -187500.02, -187500.02, -187500.02, 0.136, 0.764, 0.606, 22:54:54.937, 1541908494937
48, -287.80, 14432.50, 187500.00, 187500.00, -187500.02, -187500.02, -187500.02, -187500.02, 0.000, 0.000, 0.000, 22:54:54.937, 1541908494937
49, -64.91, 14788.14, 187500.00, 187500.00, -187500.02, -187500.02, -187500.02, -187500.02, 0.000, 0.000, 0.000, 22:54:54.937, 1541908494937
50, -221.19, 14817.31, 187500.00, 187500.00, -187500.02, -187500.02, -187500.02, -187500.02, 0.000, 0.000, 0.000, 22:54:54.937, 1541908494937
51, -379.20, 14599.18, 187500.00, 187500.00, -187500.02, -187500.02, -187500.02, -187500.02, 0.000, 0.000, 0.000, 22:54:54.937, 1541908494937
52, -312.77, 14450.71, 187500.00, 187500.00, -187500.02, -187500.02, -187500.02, -187500.02, 0.000, 0.000, 0.000, 22:54:54.937, 1541908494937
53, -58.43, 14764.02, 187500.00, 187500.00, -187500.02, -187500.02, -187500.02, -187500.02, 0.000, 0.000, 0.000, 22:54:54.937, 1541908494937
54, -156.48, 14871.91, 187500.00, 187500.00, -187500.02, -187500.02, -187500.02, -187500.02, 0.000, 0.000, 0.000, 22:54:54.937, 1541908494937
55, -340.35, 14673.74, 187500.00, 187500.00, -187500.02, -187500.02, -187500.02, -187500.02, 0.000, 0.000, 0.000, 22:54:54.938, 1541908494938
56, -357.61, 14470.56, 187500.00, 187500.00, -187500.02, -187500.02, -187500.02, -187500.02, 0.136, 0.782, 0.596, 22:54:54.938, 1541908494938
57, -84.51, 14734.25, 187500.00, 187500.00, -187500.02, -187500.02, -187500.02, -187500.02, 0.000, 0.000, 0.000, 22:54:54.938, 1541908494938
58, -121.15, 14918.20, 187500.00, 187500.00, -187500.02, -187500.02, -187500.02, -187500.02, 0.000, 0.000, 0.000, 22:54:54.938, 1541908494938
59, -315.16, 14746.65, 187500.00, 187500.00, -187500.02, -187500.02, -187500.02, -187500.02, 0.000, 0.000, 0.000, 22:54:54.938, 1541908494938
60, -364.33, 14515.29, 187500.00, 187500.00, -187500.02, -187500.02, -187500.02, -187500.02, 0.000, 0.000, 0.000, 22:54:54.939, 1541908494939
61, -115.47, 14683.60, 187500.00, 187500.00, -187500.02, -187500.02, -187500.02, -187500.02, 0.000, 0.000, 0.000, 22:54:54.957, 1541908494957
62, -75.53, 14958.32, 187500.00, 187500.00, -187500.02, -187500.02, -187500.02, -187500.02, 0.000, 0.000, 0.000, 22:54:54.957, 1541908494957
63, -282.62, 14828.08, 187500.00, 187500.00, -187500.02, -187500.02, -187500.02, -187500.02, 0.000, 0.000, 0.000, 22:54:54.958, 1541908494958
64, -365.03, 14601.52, 187500.00, 187500.00, -187500.02, -187500.02, -187500.02, -187500.02, 0.000, 0.000, 0.000, 22:54:54.958, 1541908494958
65, -159.50, 14661.49, 187500.00, 187500.00, -187500.02, -187500.02, -187500.02, -187500.02, 0.000, 0.000, 0.000, 22:54:54.958, 1541908494958
66, -41.78, 14980.50, 187500.00, 187500.00, -187500.02, -187500.02, -187500.02, -187500.02, 0.142, 0.798, 0.594, 22:54:54.958, 1541908494958
67, -219.11, 14898.96, 187500.00, 187500.00, -187500.02, -187500.02, -187500.02, -187500.02, 0.000, 0.000, 0.000, 22:54:54.958, 1541908494958
68, -339.05, 14663.15, 187500.00, 187500.00, -187500.02, -187500.02, -187500.02, -187500.02, 0.000, 0.000, 0.000, 22:54:54.958, 1541908494958
69, -202.46, 14625.71, 187500.00, 187500.00, -187500.02, -187500.02, -187500.02, -187500.02, 0.000, 0.000, 0.000, 22:54:54.958, 1541908494958
70, -17.05, 14961.99, 187500.00, 187500.00, -187500.02, -187500.02, -187500.02, -187500.02, 0.000, 0.000, 0.000, 22:54:54.958, 1541908494958
71, -185.25, 14928.68, 187500.00, 187500.00, -187500.02, -187500.02, -187500.02, -187500.02, 0.000, 0.000, 0.000, 22:54:54.958, 1541908494958
72, -332.28, 14690.50, 187500.00, 187500.00, -187500.02, -187500.02, -187500.02, -187500.02, 0.000, 0.000, 0.000, 22:54:54.958, 1541908494958
73, -260.53, 14566.09, 187500.00, 187500.00, -187500.02, -187500.02, -187500.02, -187500.02, 0.000, 0.000, 0.000, 22:54:54.959, 1541908494959
74, -52.01, 14900.70, 187500.00, 187500.00, -187500.02, -187500.02, -187500.02, -187500.02, 0.000, 0.000, 0.000, 22:54:54.959, 1541908494959
75, -194.82, 14933.89, 187500.00, 187500.00, -187500.02, -187500.02, -187500.02, -187500.02, 0.000, 0.000, 0.000, 22:54:54.959, 1541908494959
76, -351.30, 14701.48, 187500.00, 187500.00, -187500.02, -187500.02, -187500.02, -187500.02, 0.154, 0.792, 0.590, 22:54:54.959, 1541908494959
77, -303.63, 14529.64, 187500.00, 187500.00, -187500.02, -187500.02, -187500.02, -187500.02, 0.000, 0.000, 0.000, 22:54:54.959, 1541908494959
78, -35.58, 14842.41, 187500.00, 187500.00, -187500.02, -187500.02, -187500.02, -187500.02, 0.000, 0.000, 0.000, 22:54:54.959, 1541908494959
79, -111.11, 14961.05, 187500.00, 187500.00, -187500.02, -187500.02, -187500.02, -187500.02, 0.000, 0.000, 0.000, 22:54:54.959, 1541908494959
80, -330.72, 14760.33, 187500.00, 187500.00, -187500.02, -187500.02, -187500.02, -187500.02, 0.000, 0.000, 0.000, 22:54:54.959, 1541908494959
81, -363.55, 14526.80, 187500.00, 187500.00, -187500.02, -187500.02, -187500.02, -187500.02, 0.000, 0.000, 0.000, 22:54:54.959, 1541908494959
82, -95.31, 14742.83, 187500.00, 187500.00, -187500.02, -187500.02, -187500.02, -187500.02, 0.000, 0.000, 0.000, 22:54:54.959, 1541908494959
83, -112.47, 14950.57, 187500.00, 187500.00, -187500.02, -187500.02, -187500.02, -187500.02, 0.000, 0.000, 0.000, 22:54:54.959, 1541908494959
84, -309.62, 14793.46, 187500.00, 187500.00, -187500.02, -187500.02, -187500.02, -187500.02, 0.000, 0.000, 0.000, 22:54:54.960, 1541908494960
85, -376.00, 14539.50, 187500.00, 187500.00, -187500.02, -187500.02, -187500.02, -187500.02, 0.000, 0.000, 0.000, 22:54:54.960, 1541908494960
86, -131.09, 14660.82, 187500.00, 187500.00, -187500.02, -187500.02, -187500.02, -187500.02, 0.154, 0.786, 0.588, 22:54:54.960, 1541908494960
87, -78.75, 14926.34, 187500.00, 187500.00, -187500.02, -187500.02, -187500.02, -187500.02, 0.000, 0.000, 0.000, 22:54:54.960, 1541908494960
88, -277.70, 14794.22, 187500.00, 187500.00, -187500.02, -187500.02, -187500.02, -187500.02, 0.000, 0.000, 0.000, 22:54:54.960, 1541908494960
89, -387.85, 14554.52, 187500.00, 187500.00, -187500.02, -187500.02, -187500.02, -187500.02, 0.000, 0.000, 0.000, 22:54:54.960, 1541908494960
90, -193.16, 14602.39, 187500.00, 187500.00, -187500.02, -187500.02, -187500.02, -187500.02, 0.000, 0.000, 0.000, 22:54:54.960, 1541908494960
91, -65.40, 14923.21, 187500.00, 187500.00, -187500.02, -187500.02, -187500.02, -187500.02, 0.000, 0.000, 0.000, 22:54:54.960, 1541908494960
92, -272.80, 14825.71, 187500.00, 187500.00, -187500.02, -187500.02, -187500.02, -187500.02, 0.000, 0.000, 0.000, 22:54:54.960, 1541908494960
93, -391.11, 14580.58, 187500.00, 187500.00, -187500.02, -187500.02, -187500.02, -187500.02, 0.000, 0.000, 0.000, 22:54:54.960, 1541908494960
94, -232.46, 14539.45, 187500.00, 187500.00, -187500.02, -187500.02, -187500.02, -187500.02, 0.000, 0.000, 0.000, 22:54:54.960, 1541908494960
95, -33.62, 14888.61, 187500.00, 187500.00, -187500.02, -187500.02, -187500.02, -187500.02, 0.000, 0.000, 0.000, 22:54:54.960, 1541908494960
96, -190.64, 14869.48, 187500.00, 187500.00, -187500.02, -187500.02, -187500.02, -187500.02, 0.162, 0.782, 0.586, 22:54:54.961, 1541908494961
97, -341.62, 14623.49, 187500.00, 187500.00, -187500.02, -187500.02, -187500.02, -187500.02, 0.000, 0.000, 0.000, 22:54:54.961, 1541908494961
98, -263.26, 14486.01, 187500.00, 187500.00, -187500.02, -187500.02, -187500.02, -187500.02, 0.000, 0.000, 0.000, 22:54:54.961, 1541908494961
99, -31.02, 14840.17, 187500.00, 187500.00, -187500.02, -187500.02, -187500.02, -187500.02, 0.000, 0.000, 0.000, 22:54:54.961, 1541908494961
100, -180.18, 14883.15, 187500.00, 187500.00, -187500.02, -187500.02, -187500.02, -187500.02, 0.000, 0.000, 0.000, 22:54:54.961, 1541908494961
101, -343.52, 14655.35, 187500.00, 187500.00, -187500.02, -187500.02, -187500.02, -187500.02, 0.000, 0.000, 0.000, 22:54:54.961, 1541908494961
102, -311.90, 14471.50, 187500.00, 187500.00, -187500.02, -187500.02, -187500.02, -187500.02, 0.000, 0.000, 0.000, 22:54:54.961, 1541908494961
103, -55.21, 14757.85, 187500.00, 187500.00, -187500.02, -187500.02, -187500.02, -187500.02, 0.000, 0.000, 0.000, 22:54:54.961, 1541908494961
104, -133.53, 14879.60, 187500.00, 187500.00, -187500.02, -187500.02, -187500.02, -187500.02, 0.000, 0.000, 0.000, 22:54:54.961, 1541908494961
105, -324.01, 14680.78, 187500.00, 187500.00, -187500.02, -187500.02, -187500.02, -187500.02, 0.158, 0.778, 0.596, 22:54:54.961, 1541908494961
106, -337.15, 14472.93, 187500.00, 187500.00, -187500.02, -187500.02, -187500.02, -187500.02, 0.000, 0.000, 0.000, 22:54:54.961, 1541908494961
107, -65.60, 14684.07, 187500.00, 187500.00, -187500.02, -187500.02, -187500.02, -187500.02, 0.000, 0.000, 0.000, 22:54:54.962, 1541908494962
108, -87.89, 14893.55, 187500.00, 187500.00, -187500.02, -187500.02, -187500.02, -187500.02, 0.000, 0.000, 0.000, 22:54:54.962, 1541908494962
109, -306.91, 14724.61, 187500.00, 187500.00, -187500.02, -187500.02, -187500.02, -187500.02, 0.000, 0.000, 0.000, 22:54:54.962, 1541908494962
110, -363.10, 14490.81, 187500.00, 187500.00, -187500.02, -187500.02, -187500.02, -187500.02, 0.000, 0.000, 0.000, 22:54:54.962, 1541908494962
111, -116.72, 14610.04, 187500.00, 187500.00, -187500.02, -187500.02, -187500.02, -187500.02, 0.000, 0.000, 0.000, 22:54:54.962, 1541908494962
112, -47.59, 14893.24, 187500.00, 187500.00, -187500.02, -187500.02, -187500.02, -187500.02, 0.000, 0.000, 0.000, 22:54:54.962, 1541908494962
113, -264.24, 14777.74, 187500.00, 187500.00, -187500.02, -187500.02, -187500.02, -187500.02, 0.000, 0.000, 0.000, 22:54:54.962, 1541908494962
114, -369.18, 14524.63, 187500.00, 187500.00, -187500.02, -187500.02, -187500.02, -187500.02, 0.000, 0.000, 0.000, 22:54:54.962, 1541908494962
115, -168.35, 14546.60, 187500.00, 187500.00, -187500.02, -187500.02, -187500.02, -187500.02, 0.160, 0.780, 0.602, 22:54:54.962, 1541908494962
116, -35.23, 14872.45, 187500.00, 187500.00, -187500.02, -187500.02, -187500.02, -187500.02, 0.000, 0.000, 0.000, 22:54:54.962, 1541908494962
117, -239.54, 14800.94, 187500.00, 187500.00, -187500.02, -187500.02, -187500.02, -187500.02, 0.000, 0.000, 0.000, 22:54:54.962, 1541908494962
118, -366.03, 14556.08, 187500.00, 187500.00, -187500.02, -187500.02, -187500.02, -187500.02, 0.000, 0.000, 0.000, 22:54:54.962, 1541908494962
119, -213.57, 14486.05, 187500.00, 187500.00, -187500.02, -187500.02, -187500.02, -187500.02, 0.000, 0.000, 0.000, 22:54:54.963, 1541908494963
120, -17.64, 14826.60, 187500.00, 187500.00, -187500.02, -187500.02, -187500.02, -187500.02, 0.000, 0.000, 0.000, 22:54:54.963, 1541908494963
121, -185.39, 14818.76, 187500.00, 187500.00, -187500.02, -187500.02, -187500.02, -187500.02, 0.000, 0.000, 0.000, 22:54:55.403, 1541908495403
122, -336.71, 14589.18, 187500.00, 187500.00, -187500.02, -187500.02, -187500.02, -187500.02, 0.000, 0.000, 0.000, 22:54:55.403, 1541908495403
123, -262.14, 14448.12, 187500.00, 187500.00, -187500.02, -187500.02, -187500.02, -187500.02, 0.000, 0.000, 0.000, 22:54:55.404, 1541908495404
124, -8.52, 14782.15, 187500.00, 187500.00, -187500.02, -187500.02, -187500.02, -187500.02, 0.000, 0.000, 0.000, 22:54:55.404, 1541908495404
125, -133.71, 14847.06, 187500.00, 187500.00, -187500.02, -187500.02, -187500.02, -187500.02, 0.158, 0.776, 0.604, 22:54:55.404, 1541908495404
126, -316.88, 14626.06, 187500.00, 187500.00, -187500.02, -187500.02, -187500.02, -187500.02, 0.000, 0.000, 0.000, 22:54:55.404, 1541908495404
127, -299.92, 14431.38, 187500.00, 187500.00, -187500.02, -187500.02, -187500.02, -187500.02, 0.000, 0.000, 0.000, 22:54:55.406, 1541908495406
128, -23.60, 14710.82, 187500.00, 187500.00, -187500.02, -187500.02, -187500.02, -187500.02, 0.000, 0.000, 0.000, 22:54:55.408, 1541908495408
129, -101.52, 14851.91, 187500.00, 187500.00, -187500.02, -187500.02, -187500.02, -187500.02, 0.000, 0.000, 0.000, 22:54:55.408, 1541908495408
130, -291.40, 14657.49, 187500.00, 187500.00, -187500.02, -187500.02, -187500.02, -187500.02, 0.000, 0.000, 0.000, 22:54:55.408, 1541908495408
131, -322.11, 14432.70, 187500.00, 187500.00, -187500.02, -187500.02, -187500.02, -187500.02, 0.000, 0.000, 0.000, 22:54:55.408, 1541908495408
132, -60.84, 14631.97, 187500.00, 187500.00, -187500.02, -187500.02, -187500.02, -187500.02, 0.000, 0.000, 0.000, 22:54:55.408, 1541908495408
133, -70.65, 14846.59, 187500.00, 187500.00, -187500.02, -187500.02, -187500.02, -187500.02, 0.000, 0.000, 0.000, 22:54:55.408, 1541908495408
134, -288.63, 14682.57, 187500.00, 187500.00, -187500.02, -187500.02, -187500.02, -187500.02, 0.000, 0.000, 0.000, 22:54:55.409, 1541908495409
135, -334.20, 14449.42, 187500.00, 187500.00, -187500.02, -187500.02, -187500.02, -187500.02, 0.152, 0.774, 0.600, 22:54:55.409, 1541908495409
136, -91.40, 14556.60, 187500.00, 187500.00, -187500.02, -187500.02, -187500.02, -187500.02, 0.000, 0.000, 0.000, 22:54:55.409, 1541908495409
137, -43.90, 14831.79, 187500.00, 187500.00, -187500.02, -187500.02, -187500.02, -187500.02, 0.000, 0.000, 0.000, 22:54:55.409, 1541908495409
138, -258.54, 14703.80, 187500.00, 187500.00, -187500.02, -187500.02, -187500.02, -187500.02, 0.000, 0.000, 0.000, 22:54:55.409, 1541908495409
139, -366.50, 14464.01, 187500.00, 187500.00, -187500.02, -187500.02, -187500.02, -187500.02, 0.000, 0.000, 0.000, 22:54:55.409, 1541908495409
140, -168.35, 14480.33, 187500.00, 187500.00, -187500.02, -187500.02, -187500.02, -187500.02, 0.000, 0.000, 0.000, 22:54:55.409, 1541908495409
141, -6.41, 14810.33, 187500.00, 187500.00, -187500.02, -187500.02, -187500.02, -187500.02, 0.000, 0.000, 0.000, 22:54:55.409, 1541908495409
142, -201.48, 14750.27, 187500.00, 187500.00, -187500.02, -187500.02, -187500.02, -187500.02, 0.000, 0.000, 0.000, 22:54:55.409, 1541908495409
143, -330.38, 14512.09, 187500.00, 187500.00, -187500.02, -187500.02, -187500.02, -187500.02, 0.000, 0.000, 0.000, 22:54:55.409, 1541908495409
144, -209.97, 14439.94, 187500.00, 187500.00, -187500.02, -187500.02, -187500.02, -187500.02, 0.150, 0.778, 0.606, 22:54:55.409, 1541908495409
145, -3.67, 14785.54, 187500.00, 187500.00, -187500.02, -187500.02, -187500.02, -187500.02, 0.000, 0.000, 0.000, 22:54:55.409, 1541908495409
146, -162.18, 14787.31, 187500.00, 187500.00, -187500.02, -187500.02, -187500.02, -187500.02, 0.000, 0.000, 0.000, 22:54:55.410, 1541908495410
147, -324.41, 14570.83, 187500.00, 187500.00, -187500.02, -187500.02, -187500.02, -187500.02, 0.000, 0.000, 0.000, 22:54:55.410, 1541908495410
148, -265.34, 14425.21, 187500.00, 187500.00, -187500.02, -187500.02, -187500.02, -187500.02, 0.000, 0.000, 0.000, 22:54:55.410, 1541908495410
149, -2.28, 14736.62, 187500.00, 187500.00, -187500.02, -187500.02, -187500.02, -187500.02, 0.000, 0.000, 0.000, 22:54:55.410, 1541908495410
150, -122.20, 14826.83, 187500.00, 187500.00, -187500.02, -187500.02, -187500.02, -187500.02, 0.000, 0.000, 0.000, 22:54:55.410, 1541908495410
151, -291.38, 14631.09, 187500.00, 187500.00, -187500.02, -187500.02, -187500.02, -187500.02, 0.000, 0.000, 0.000, 22:54:55.410, 1541908495410
152, -284.16, 14432.81, 187500.00, 187500.00, -187500.02, -187500.02, -187500.02, -187500.02, 0.000, 0.000, 0.000, 22:54:55.410, 1541908495410
153, -35.79, 14686.50, 187500.00, 187500.00, -187500.02, -187500.02, -187500.02, -187500.02, 0.000, 0.000, 0.000, 22:54:55.410, 1541908495410
154, -90.73, 14841.56, 187500.00, 187500.00, -187500.02, -187500.02, -187500.02, -187500.02, 0.156, 0.782, 0.602, 22:54:55.410, 1541908495410
155, -292.20, 14651.43, 187500.00, 187500.00, -187500.02, -187500.02, -187500.02, -187500.02, 0.000, 0.000, 0.000, 22:54:55.410, 1541908495410
156, -309.77, 14432.52, 187500.00, 187500.00, -187500.02, -187500.02, -187500.02, -187500.02, 0.000, 0.000, 0.000, 22:54:55.410, 1541908495410
157, -59.05, 14622.91, 187500.00, 187500.00, -187500.02, -187500.02, -187500.02, -187500.02, 0.000, 0.000, 0.000, 22:54:55.411, 1541908495411
158, -50.07, 14858.08, 187500.00, 187500.00, -187500.02, -187500.02, -187500.02, -187500.02, 0.000, 0.000, 0.000, 22:54:55.411, 1541908495411
159, -251.55, 14705.01, 187500.00, 187500.00, -187500.02, -187500.02, -187500.02, -187500.02, 0.000, 0.000, 0.000, 22:54:55.411, 1541908495411
160, -335.41, 14466.18, 187500.00, 187500.00, -187500.02, -187500.02, -187500.02, -187500.02, 0.000, 0.000, 0.000, 22:54:55.411, 1541908495411
161, -102.26, 14560.73, 187500.00, 187500.00, -187500.02, -187500.02, -187500.02, -187500.02, 0.000, 0.000, 0.000, 22:54:55.411, 1541908495411
162, -16.76, 14861.07, 187500.00, 187500.00, -187500.02, -187500.02, -187500.02, -187500.02, 0.000, 0.000, 0.000, 22:54:55.411, 1541908495411
163, -239.50, 14752.91, 187500.00, 187500.00, -187500.02, -187500.02, -187500.02, -187500.02, 0.000, 0.000, 0.000, 22:54:55.411, 1541908495411
164, -350.30, 14502.48, 187500.00, 187500.00, -187500.02, -187500.02, -187500.02, -187500.02, 0.158, 0.784, 0.602, 22:54:55.411, 1541908495411
165, -172.53, 14505.30, 187500.00, 187500.00, -187500.02, -187500.02, -187500.02, -187500.02, 0.000, 0.000, 0.000, 22:54:55.411, 1541908495411
166, 6.75, 14854.21, 187500.00, 187500.00, -187500.02, -187500.02, -187500.02, -187500.02, 0.000, 0.000, 0.000, 22:54:55.411, 1541908495411
167, -188.13, 14792.34, 187500.00, 187500.00, -187500.02, -187500.02, -187500.02, -187500.02, 0.000, 0.000, 0.000, 22:54:55.411, 1541908495411
168, -347.48, 14545.80, 187500.00, 187500.00, -187500.02, -187500.02, -187500.02, -187500.02, 0.000, 0.000, 0.000, 22:54:55.411, 1541908495411
169, -231.90, 14460.17, 187500.00, 187500.00, -187500.02, -187500.02, -187500.02, -187500.02, 0.000, 0.000, 0.000, 22:54:55.412, 1541908495412
170, 3.49, 14821.82, 187500.00, 187500.00, -187500.02, -187500.02, -187500.02, -187500.02, 0.000, 0.000, 0.000, 22:54:55.412, 1541908495412
171, -139.05, 14839.68, 187500.00, 187500.00, -187500.02, -187500.02, -187500.02, -187500.02, 0.000, 0.000, 0.000, 22:54:55.412, 1541908495412
172, -301.99, 14609.52, 187500.00, 187500.00, -187500.02, -187500.02, -187500.02, -187500.02, 0.000, 0.000, 0.000, 22:54:55.412, 1541908495412
173, -263.10, 14463.61, 187500.00, 187500.00, -187500.02, -187500.02, -187500.02, -187500.02, 0.000, 0.000, 0.000, 22:54:55.412, 1541908495412
174, -18.15, 14781.83, 187500.00, 187500.00, -187500.02, -187500.02, -187500.02, -187500.02, 0.156, 0.776, 0.600, 22:54:55.412, 1541908495412
175, -129.35, 14868.45, 187500.00, 187500.00, -187500.02, -187500.02, -187500.02, -187500.02, 0.000, 0.000, 0.000, 22:54:55.412, 1541908495412
176, -304.72, 14658.74, 187500.00, 187500.00, -187500.02, -187500.02, -187500.02, -187500.02, 0.000, 0.000, 0.000, 22:54:55.412, 1541908495412
177, -289.16, 14455.97, 187500.00, 187500.00, -187500.02, -187500.02, -187500.02, -187500.02, 0.000, 0.000, 0.000, 22:54:55.412, 1541908495412
178, -31.11, 14713.28, 187500.00, 187500.00, -187500.02, -187500.02, -187500.02, -187500.02, 0.000, 0.000, 0.000, 22:54:55.412, 1541908495412
179, -84.78, 14886.66, 187500.00, 187500.00, -187500.02, -187500.02, -187500.02, -187500.02, 0.000, 0.000, 0.000, 22:54:55.412, 1541908495412
180, -266.05, 14696.47, 187500.00, 187500.00, -187500.02, -187500.02, -187500.02, -187500.02, 0.000, 0.000, 0.000, 22:54:55.412, 1541908495412
181, -317.46, 14465.33, 187500.00, 187500.00, -187500.02, -187500.02, -187500.02, -187500.02, 0.000, 0.000, 0.000, 22:54:55.413, 1541908495413
182, -86.81, 14640.44, 187500.00, 187500.00, -187500.02, -187500.02, -187500.02, -187500.02, 0.000, 0.000, 0.000, 22:54:55.413, 1541908495413
183, -53.40, 14892.90, 187500.00, 187500.00, -187500.02, -187500.02, -187500.02, -187500.02, 0.000, 0.000, 0.000, 22:54:55.413, 1541908495413
184, -237.58, 14738.61, 187500.00, 187500.00, -187500.02, -187500.02, -187500.02, -187500.02, 0.152, 0.778, 0.602, 22:54:55.413, 1541908495413
185, -332.59, 14497.09, 187500.00, 187500.00, -187500.02, -187500.02, -187500.02, -187500.02, 0.000, 0.000, 0.000, 22:54:55.413, 1541908495413
186, -131.05, 14579.95, 187500.00, 187500.00, -187500.02, -187500.02, -187500.02, -187500.02, 0.000, 0.000, 0.000, 22:54:55.413, 1541908495413
187, -19.74, 14883.15, 187500.00, 187500.00, -187500.02, -187500.02, -187500.02, -187500.02, 0.000, 0.000, 0.000, 22:54:55.413, 1541908495413
188, -214.26, 14781.79, 187500.00, 187500.00, -187500.02, -187500.02, -187500.02, -187500.02, 0.000, 0.000, 0.000, 22:54:55.413, 1541908495413
189, -329.15, 14534.60, 187500.00, 187500.00, -187500.02, -187500.02, -187500.02, -187500.02, 0.000, 0.000, 0.000, 22:54:55.413, 1541908495413
190, -161.92, 14523.34, 187500.00, 187500.00, -187500.02, -187500.02, -187500.02, -187500.02, 0.000, 0.000, 0.000, 22:54:55.413, 1541908495413
191, 19.85, 14870.03, 187500.00, 187500.00, -187500.02, -187500.02, -187500.02, -187500.02, 0.000, 0.000, 0.000, 22:54:55.424, 1541908495424
192, -163.86, 14826.09, 187500.00, 187500.00, -187500.02, -187500.02, -187500.02, -187500.02, 0.000, 0.000, 0.000, 22:54:55.424, 1541908495424
193, -330.63, 14586.37, 187500.00, 187500.00, -187500.02, -187500.02, -187500.02, -187500.02, 0.154, 0.782, 0.596, 22:54:55.424, 1541908495424
194, -222.82, 14485.14, 187500.00, 187500.00, -187500.02, -187500.02, -187500.02, -187500.02, 0.000, 0.000, 0.000, 22:54:55.424, 1541908495424
195, -0.85, 14831.39, 187500.00, 187500.00, -187500.02, -187500.02, -187500.02, -187500.02, 0.000, 0.000, 0.000, 22:54:55.424, 1541908495424
196, -158.23, 14856.40, 187500.00, 187500.00, -187500.02, -187500.02, -187500.02, -187500.02, 0.000, 0.000, 0.000, 22:54:55.425, 1541908495425
197, -323.88, 14627.92, 187500.00, 187500.00, -187500.02, -187500.02, -187500.02, -187500.02, 0.000, 0.000, 0.000, 22:54:55.425, 1541908495425
198, -262.77, 14462.09, 187500.00, 187500.00, -187500.02, -187500.02, -187500.02, -187500.02, 0.000, 0.000, 0.000, 22:54:55.425, 1541908495425
199, 5.43, 14767.44, 187500.00, 187500.00, -187500.02, -187500.02, -187500.02, -187500.02, 0.000, 0.000, 0.000, 22:54:55.425, 1541908495425
200, -98.28, 14870.03, 187500.00, 187500.00, -187500.02, -187500.02, -187500.02, -187500.02, 0.000, 0.000, 0.000, 22:54:55.425, 1541908495425
201, -302.84, 14658.07, 187500.00, 187500.00, -187500.02, -187500.02, -187500.02, -187500.02, 0.000, 0.000, 0.000, 22:54:55.425, 1541908495425
202, -302.17, 14450.85, 187500.00, 187500.00, -187500.02, -187500.02, -187500.02, -187500.02, 0.000, 0.000, 0.000, 22:54:55.455, 1541908495455
203, -28.03, 14701.10, 187500.00, 187500.00, -187500.02, -187500.02, -187500.02, -187500.02, 0.150, 0.784, 0.598, 22:54:55.455, 1541908495455
204, -69.67, 14887.98, 187500.00, 187500.00, -187500.02, -187500.02, -187500.02, -187500.02, 0.000, 0.000, 0.000, 22:54:55.457, 1541908495457
205, -264.06, 14706.15, 187500.00, 187500.00, -187500.02, -187500.02, -187500.02, -187500.02, 0.000, 0.000, 0.000, 22:54:55.458, 1541908495458
206, -319.50, 14479.28, 187500.00, 187500.00, -187500.02, -187500.02, -187500.02, -187500.02, 0.000, 0.000, 0.000, 22:54:55.458, 1541908495458
207, -87.15, 14648.39, 187500.00, 187500.00, -187500.02, -187500.02, -187500.02, -187500.02, 0.000, 0.000, 0.000, 22:54:55.459, 1541908495459
208, -45.35, 14909.82, 187500.00, 187500.00, -187500.02, -187500.02, -187500.02, -187500.02, 0.000, 0.000, 0.000, 22:54:55.459, 1541908495459
209, -257.67, 14760.58, 187500.00, 187500.00, -187500.02, -187500.02, -187500.02, -187500.02, 0.000, 0.000, 0.000, 22:54:55.461, 1541908495461
210, -345.20, 14511.69, 187500.00, 187500.00, -187500.02, -187500.02, -187500.02, -187500.02, 0.000, 0.000, 0.000, 22:54:55.461, 1541908495461
211, -134.00, 14574.28, 187500.00, 187500.00, -187500.02, -187500.02, -187500.02, -187500.02, 0.000, 0.000, 0.000, 22:54:55.462, 1541908495462
212, -14.84, 14889.97, 187500.00, 187500.00, -187500.02, -187500.02, -187500.02, -187500.02, 0.000, 0.000, 0.000, 22:54:55.462, 1541908495462
213, -206.46, 14795.76, 187500.00, 187500.00, -187500.02, -187500.02, -187500.02, -187500.02, 0.148, 0.774, 0.600, 22:54:55.462, 1541908495462
214, -341.33, 14551.77, 187500.00, 187500.00, -187500.02, -187500.02, -187500.02, -187500.02, 0.000, 0.000, 0.000, 22:54:55.463, 1541908495463
215, -180.65, 14519.94, 187500.00, 187500.00, -187500.02, -187500.02, -187500.02, -187500.02, 0.000, 0.000, 0.000, 22:54:55.463, 1541908495463
216, 18.24, 14873.43, 187500.00, 187500.00, -187500.02, -187500.02, -187500.02, -187500.02, 0.000, 0.000, 0.000, 22:54:55.463, 1541908495463
217, -164.08, 14842.63, 187500.00, 187500.00, -187500.02, -187500.02, -187500.02, -187500.02, 0.000, 0.000, 0.000, 22:54:55.463, 1541908495463
218, -323.23, 14601.70, 187500.00, 187500.00, -187500.02, -187500.02, -187500.02, -187500.02, 0.000, 0.000, 0.000, 22:54:55.463, 1541908495463
219, -245.18, 14481.16, 187500.00, 187500.00, -187500.02, -187500.02, -187500.02, -187500.02, 0.000, 0.000, 0.000, 22:54:55.463, 1541908495463
220, -14.28, 14829.24, 187500.00, 187500.00, -187500.02, -187500.02, -187500.02, -187500.02, 0.000, 0.000, 0.000, 22:54:55.463, 1541908495463
221, -155.28, 14853.81, 187500.00, 187500.00, -187500.02, -187500.02, -187500.02, -187500.02, 0.000, 0.000, 0.000, 22:54:55.463, 1541908495463
222, -325.28, 14623.38, 187500.00, 187500.00, -187500.02, -187500.02, -187500.02, -187500.02, 0.000, 0.000, 0.000, 22:54:55.463, 1541908495463
223, -294.39, 14453.73, 187500.00, 187500.00, -187500.02, -187500.02, -187500.02, -187500.02, 0.150, 0.774, 0.604, 22:54:55.464, 1541908495464
224, -25.35, 14756.78, 187500.00, 187500.00, -187500.02, -187500.02, -187500.02, -187500.02, 0.000, 0.000, 0.000, 22:54:55.465, 1541908495465
225, -116.36, 14875.73, 187500.00, 187500.00, -187500.02, -187500.02, -187500.02, -187500.02, 0.000, 0.000, 0.000, 22:54:55.466, 1541908495466
226, -302.96, 14667.79, 187500.00, 187500.00, -187500.02, -187500.02, -187500.02, -187500.02, 0.000, 0.000, 0.000, 22:54:55.466, 1541908495466
227, -304.10, 14469.65, 187500.00, 187500.00, -187500.02, -187500.02, -187500.02, -187500.02, 0.000, 0.000, 0.000, 22:54:55.466, 1541908495466
228, -53.91, 14703.38, 187500.00, 187500.00, -187500.02, -187500.02, -187500.02, -187500.02, 0.000, 0.000, 0.000, 22:54:55.466, 1541908495466
229, -81.94, 14889.10, 187500.00, 187500.00, -187500.02, -187500.02, -187500.02, -187500.02, 0.000, 0.000, 0.000, 22:54:55.466, 1541908495466
230, -265.29, 14705.79, 187500.00, 187500.00, -187500.02, -187500.02, -187500.02, -187500.02, 0.000, 0.000, 0.000, 22:54:55.467, 1541908495467
231, -322.74, 14485.85, 187500.00, 187500.00, -187500.02, -187500.02, -187500.02, -187500.02, 0.000, 0.000, 0.000, 22:54:55.467, 1541908495467
232, -96.20, 14619.43, 187500.00, 187500.00, -187500.02, -187500.02, -187500.02, -187500.02, 0.150, 0.776, 0.604, 22:54:55.467, 1541908495467
233, -63.08, 14887.56, 187500.00, 187500.00, -187500.02, -187500.02, -187500.02, -187500.02, 0.000, 0.000, 0.000, 22:54:55.467, 1541908495467
234, -275.87, 14746.09, 187500.00, 187500.00, -187500.02, -187500.02, -187500.02, -187500.02, 0.000, 0.000, 0.000, 22:54:55.467, 1541908495467
235, -364.40, 14502.33, 187500.00, 187500.00, -187500.02, -187500.02, -187500.02, -187500.02, 0.000, 0.000, 0.000, 22:54:55.467, 1541908495467
236, -141.29, 14548.82, 187500.00, 187500.00, -187500.02, -187500.02, -187500.02, -187500.02, 0.000, 0.000, 0.000, 22:54:55.467, 1541908495467
237, -8.58, 14885.01, 187500.00, 187500.00, -187500.02, -187500.02, -187500.02, -187500.02, 0.000, 0.000, 0.000, 22:54:55.467, 1541908495467
238, -237.80, 14791.24, 187500.00, 187500.00, -187500.02, -187500.02, -187500.02, -187500.02, 0.000, 0.000, 0.000, 22:54:55.467, 1541908495467
239, -350.39, 14540.46, 187500.00, 187500.00, -187500.02, -187500.02, -187500.02, -187500.02, 0.000, 0.000, 0.000, 22:54:55.467, 1541908495467
240, -195.38, 14493.43, 187500.00, 187500.00, -187500.02, -187500.02, -187500.02, -187500.02, 0.000, 0.000, 0.000, 22:54:55.467, 1541908495467
241, -3.73, 14848.17, 187500.00, 187500.00, -187500.02, -187500.02, -187500.02, -187500.02, 0.000, 0.000, 0.000, 22:54:55.883, 1541908495883
242, -183.51, 14825.04, 187500.00, 187500.00, -187500.02, -187500.02, -187500.02, -187500.02, 0.154, 0.774, 0.600, 22:54:55.884, 1541908495884
243, -351.01, 14590.68, 187500.00, 187500.00, -187500.02, -187500.02, -187500.02, -187500.02, 0.000, 0.000, 0.000, 22:54:55.884, 1541908495884
244, -267.53, 14474.34, 187500.00, 187500.00, -187500.02, -187500.02, -187500.02, -187500.02, 0.000, 0.000, 0.000, 22:54:55.884, 1541908495884
245, -16.74, 14814.07, 187500.00, 187500.00, -187500.02, -187500.02, -187500.02, -187500.02, 0.000, 0.000, 0.000, 22:54:55.884, 1541908495884
246, -150.72, 14865.83, 187500.00, 187500.00, -187500.02, -187500.02, -187500.02, -187500.02, 0.000, 0.000, 0.000, 22:54:55.884, 1541908495884
247, -341.53, 14627.83, 187500.00, 187500.00, -187500.02, -187500.02, -187500.02, -187500.02, 0.000, 0.000, 0.000, 22:54:55.884, 1541908495884
248, -300.72, 14447.70, 187500.00, 187500.00, -187500.02, -187500.02, -187500.02, -187500.02, 0.000, 0.000, 0.000, 22:54:55.884, 1541908495884
249, -27.18, 14746.72, 187500.00, 187500.00, -187500.02, -187500.02, -187500.02, -187500.02, 0.000, 0.000, 0.000, 22:54:55.884, 1541908495884
250, -110.91, 14878.82, 187500.00, 187500.00, -187500.02, -187500.02, -187500.02, -187500.02, 0.000, 0.000, 0.000, 22:54:55.884, 1541908495884
251, -315.54, 14671.13, 187500.00, 187500.00, -187500.02, -187500.02, -187500.02, -187500.02, 0.000, 0.000, 0.000, 22:54:55.884, 1541908495884
252, -333.31, 14448.93, 187500.00, 187500.00, -187500.02, -187500.02, -187500.02, -187500.02, 0.150, 0.778, 0.606, 22:54:55.885, 1541908495885
253, -38.42, 14676.92, 187500.00, 187500.00, -187500.02, -187500.02, -187500.02, -187500.02, 0.000, 0.000, 0.000, 22:54:55.885, 1541908495885
254, -57.35, 14900.25, 187500.00, 187500.00, -187500.02, -187500.02, -187500.02, -187500.02, 0.000, 0.000, 0.000, 22:54:55.886, 1541908495886
255, -301.84, 14726.69, 187500.00, 187500.00, -187500.02, -187500.02, -187500.02, -187500.02, 0.000, 0.000, 0.000, 22:54:55.886, 1541908495886
0, -372.13, 14482.90, 187500.00, 187500.00, -187500.02, -187500.02, -187500.02, -187500.02, 0.000, 0.000, 0.000, 22:54:55.887, 1541908495887
1, -127.09, 14602.98, 187500.00, 187500.00, -187500.02, -187500.02, -187500.02, -187500.02, 0.000, 0.000, 0.000, 22:54:55.887, 1541908495887
2, -44.64, 14887.11, 187500.00, 187500.00, -187500.02, -187500.02, -187500.02, -187500.02, 0.000, 0.000, 0.000, 22:54:55.887, 1541908495887
3, -245.56, 14762.97, 187500.00, 187500.00, -187500.02, -187500.02, -187500.02, -187500.02, 0.000, 0.000, 0.000, 22:54:55.888, 1541908495888
4, -343.64, 14516.81, 187500.00, 187500.00, -187500.02, -187500.02, -187500.02, -187500.02, 0.000, 0.000, 0.000, 22:54:55.888, 1541908495888
5, -152.30, 14551.95, 187500.00, 187500.00, -187500.02, -187500.02, -187500.02, -187500.02, 0.000, 0.000, 0.000, 22:54:55.890, 1541908495890
6, -13.17, 14881.37, 187500.00, 187500.00, -187500.02, -187500.02, -187500.02, -187500.02, 0.152, 0.778, 0.604, 22:54:55.896, 1541908495896
7, -225.98, 14791.45, 187500.00, 187500.00, -187500.02, -187500.02, -187500.02, -187500.02, 0.000, 0.000, 0.000, 22:54:55.896, 1541908495896
8, -353.87, 14546.31, 187500.00, 187500.00, -187500.02, -187500.02, -187500.02, -187500.02, 0.000, 0.000, 0.000, 22:54:55.897, 1541908495897
9, -214.93, 14485.47, 187500.00, 187500.00, -187500.02, -187500.02, -187500.02, -187500.02, 0.000, 0.000, 0.000, 22:54:55.897, 1541908495897
10, 1.77, 14838.52, 187500.00, 187500.00, -187500.02, -187500.02, -187500.02, -187500.02, 0.000, 0.000, 0.000, 22:54:55.897, 1541908495897
11, -186.06, 14835.50, 187500.00, 187500.00, -187500.02, -187500.02, -187500.02, -187500.02, 0.000, 0.000, 0.000, 22:54:55.897, 1541908495897
12, -358.92, 14596.87, 187500.00, 187500.00, -187500.02, -187500.02, -187500.02, -187500.02, 0.000, 0.000, 0.000, 22:54:55.897, 1541908495897
13, -257.13, 14474.21, 187500.00, 187500.00, -187500.02, -187500.02, -187500.02, -187500.02, 0.000, 0.000, 0.000, 22:54:55.897, 1541908495897
14, 15.69, 14803.02, 187500.00, 187500.00, -187500.02, -187500.02, -187500.02, -187500.02, 0.000, 0.000, 0.000, 22:54:55.897, 1541908495897
15, -129.80, 14860.87, 187500.00, 187500.00, -187500.02, -187500.02, -187500.02, -187500.02, 0.000, 0.000, 0.000, 22:54:55.897, 1541908495897
16, -318.96, 14656.35, 187500.00, 187500.00, -187500.02, -187500.02, -187500.02, -187500.02, 0.156, 0.778, 0.610, 22:54:55.898, 1541908495898
17, -292.72, 14471.61, 187500.00, 187500.00, -187500.02, -187500.02, -187500.02, -187500.02, 0.000, 0.000, 0.000, 22:54:55.898, 1541908495898
18, -22.78, 14750.63, 187500.00, 187500.00, -187500.02, -187500.02, -187500.02, -187500.02, 0.000, 0.000, 0.000, 22:54:55.898, 1541908495898
19, -97.72, 14880.41, 187500.00, 187500.00, -187500.02, -187500.02, -187500.02, -187500.02, 0.000, 0.000, 0.000, 22:54:55.898, 1541908495898
20, -295.94, 14684.40, 187500.00, 187500.00, -187500.02, -187500.02, -187500.02, -187500.02, 0.000, 0.000, 0.000, 22:54:55.899, 1541908495899
21, -330.27, 14464.46, 187500.00, 187500.00, -187500.02, -187500.02, -187500.02, -187500.02, 0.000, 0.000, 0.000, 22:54:55.899, 1541908495899
22, -72.53, 14655.68, 187500.00, 187500.00, -187500.02, -187500.02, -187500.02, -187500.02, 0.000, 0.000, 0.000, 22:54:55.899, 1541908495899
23, -72.44, 14870.48, 187500.00, 187500.00, -187500.02, -187500.02, -187500.02, -187500.02, 0.000, 0.000, 0.000, 22:54:55.899, 1541908495899
24, -290.19, 14707.18, 187500.00, 187500.00, -187500.02, -187500.02, -187500.02, -187500.02, 0.000, 0.000, 0.000, 22:54:55.899, 1541908495899
25, -352.42, 14473.16, 187500.00, 187500.00, -187500.02, -187500.02, -187500.02, -187500.02, 0.162, 0.778, 0.612, 22:54:55.899, 1541908495899
26, -114.55, 14592.69, 187500.00, 187500.00, -187500.02, -187500.02, -187500.02, -187500.02, 0.000, 0.000, 0.000, 22:54:55.899, 1541908495899
27, -45.04, 14878.06, 187500.00, 187500.00, -187500.02, -187500.02, -187500.02, -187500.02, 0.000, 0.000, 0.000, 22:54:55.899, 1541908495899
28, -265.34, 14763.30, 187500.00, 187500.00, -187500.02, -187500.02, -187500.02, -187500.02, 0.000, 0.000, 0.000, 22:54:55.899, 1541908495899
29, -367.82, 14512.16, 187500.00, 187500.00, -187500.02, -187500.02, -187500.02, -187500.02, 0.000, 0.000, 0.000, 22:54:55.899, 1541908495899
30, -179.40, 14522.00, 187500.00, 187500.00, -187500.02, -187500.02, -187500.02, -187500.02, 0.000, 0.000, 0.000, 22:54:55.899, 1541908495899
31, -22.96, 14859.51, 187500.00, 187500.00, -187500.02, -187500.02, -187500.02, -187500.02, 0.000, 0.000, 0.000, 22:54:55.899, 1541908495899
32, -200.36, 14785.43, 187500.00, 187500.00, -187500.02, -187500.02, -187500.02, -187500.02, 0.000, 0.000, 0.000, 22:54:55.900, 1541908495900
33, -332.35, 14533.98, 187500.00, 187500.00, -187500.02, -187500.02, -187500.02, -187500.02, 0.000, 0.000, 0.000, 22:54:55.900, 1541908495900
34, -238.69, 14455.90, 187500.00, 187500.00, -187500.02, -187500.02, -187500.02, -187500.02, 0.000, 0.000, 0.000, 22:54:55.900, 1541908495900
35, -34.67, 14816.30, 187500.00, 187500.00, -187500.02, -187500.02, -187500.02, -187500.02, 0.160, 0.772, 0.612, 22:54:55.900, 1541908495900
36, -195.11, 14817.04, 187500.00, 187500.00, -187500.02, -187500.02, -187500.02, -187500.02, 0.000, 0.000, 0.000, 22:54:55.900, 1541908495900
37, -348.84, 14586.14, 187500.00, 187500.00, -187500.02, -187500.02, -187500.02, -187500.02, 0.000, 0.000, 0.000, 22:54:55.900, 1541908495900
38, -259.93, 14448.48, 187500.00, 187500.00, -187500.02, -187500.02, -187500.02, -187500.02, 0.000, 0.000, 0.000, 22:54:55.901, 1541908495901
39, 8.29, 14784.00, 187500.00, 187500.00, -187500.02, -187500.02, -187500.02, -187500.02, 0.000, 0.000, 0.000, 22:54:55.901, 1541908495901
40, -119.36, 14860.76, 187500.00, 187500.00, -187500.02, -187500.02, -187500.02, -187500.02, 0.000, 0.000, 0.000, 22:54:55.902, 1541908495902
41, -316.55, 14642.74, 187500.00, 187500.00, -187500.02, -187500.02, -187500.02, -187500.02, 0.000, 0.000, 0.000, 22:54:55.902, 1541908495902
42, -302.04, 14450.74, 187500.00, 187500.00, -187500.02, -187500.02, -187500.02, -187500.02, 0.000, 0.000, 0.000, 22:54:55.902, 1541908495902
43, -26.58, 14714.73, 187500.00, 187500.00, -187500.02, -187500.02, -187500.02, -187500.02, 0.000, 0.000, 0.000, 22:54:55.902, 1541908495902
44, -88.24, 14867.40, 187500.00, 187500.00, -187500.02, -187500.02, -187500.02, -187500.02, 0.000, 0.000, 0.000, 22:54:55.902, 1541908495902
45, -297.08, 14680.87, 187500.00, 187500.00, -187500.02, -187500.02, -187500.02, -187500.02, 0.160, 0.762, 0.604, 22:54:55.903, 1541908495903
46, -326.60, 14464.10, 187500.00, 187500.00, -187500.02, -187500.02, -187500.02, -187500.02, 0.000, 0.000, 0.000, 22:54:55.903, 1541908495903
47, -37.93, 14658.52, 187500.00, 187500.00, -187500.02, -187500.02, -187500.02, -187500.02, 0.000, 0.000, 0.000, 22:54:55.903, 1541908495903
48, -56.24, 14893.41, 187500.00, 187500.00, -187500.02, -187500.02, -187500.02, -187500.02, 0.000, 0.000, 0.000, 22:54:55.903, 1541908495903
49, -285.30, 14734.14, 187500.00, 187500.00, -187500.02, -187500.02, -187500.02, -187500.02, 0.000, 0.000, 0.000, 22:54:55.903, 1541908495903
50, -348.49, 14486.30, 187500.00, 187500.00, -187500.02, -187500.02, -187500.02, -187500.02, 0.000, 0.000, 0.000, 22:54:55.903, 1541908495903
51, -121.19, 14570.03, 187500.00, 187500.00, -187500.02, -187500.02, -187500.02, -187500.02, 0.000, 0.000, 0.000, 22:54:55.903, 1541908495903
52, -30.29, 14871.49, 187500.00, 187500.00, -187500.02, -187500.02, -187500.02, -187500.02, 0.000, 0.000, 0.000, 22:54:55.903, 1541908495903
53, -230.36, 14763.01, 187500.00, 187500.00, -187500.02, -187500.02, -187500.02, -187500.02, 0.000, 0.000, 0.000, 22:54:55.903, 1541908495903
54, -340.62, 14521.15, 187500.00, 187500.00, -187500.02, -187500.02, -187500.02, -187500.02, 0.000, 0.000, 0.000, 22:54:55.903, 1541908495903
55, -160.98, 14522.02, 187500.00, 187500.00, -187500.02, -187500.02, -187500.02, -187500.02, 0.158, 0.770, 0.610, 22:54:55.904, 1541908495904
56, -17.46, 14862.05, 187500.00, 187500.00, -187500.02, -187500.02, -187500.02, -187500.02, 0.000, 0.000, 0.000, 22:54:55.904, 1541908495904
57, -211.83, 14810.24, 187500.00, 187500.00, -187500.02, -187500.02, -187500.02, -187500.02, 0.000, 0.000, 0.000, 22:54:55.904, 1541908495904
58, -339.88, 14568.60, 187500.00, 187500.00, -187500.02, -187500.02, -187500.02, -187500.02, 0.000, 0.000, 0.000, 22:54:55.904, 1541908495904
59, -208.30, 14477.18, 187500.00, 187500.00, -187500.02, -187500.02, -187500.02, -187500.02, 0.000, 0.000, 0.000, 22:54:55.904, 1541908495904
60, 14.71, 14827.86, 187500.00, 187500.00, -187500.02, -187500.02, -187500.02, -187500.02, 0.000, 0.000, 0.000, 22:54:55.904, 1541908495904
61, -160.33, 14825.55, 187500.00, 187500.00, -187500.02, -187500.02, -187500.02, -187500.02, 0.000, 0.000, 0.000, 22:54:55.904, 1541908495904
62, -334.20, 14593.59, 187500.00, 187500.00, -187500.02, -187500.02, -187500.02, -187500.02, 0.000, 0.000, 0.000, 22:54:55.904, 1541908495904
63, -261.14, 14455.05, 187500.00, 187500.00, -187500.02, -187500.02, -187500.02, -187500.02, 0.000, 0.000, 0.000, 22:54:55.904, 1541908495904
64, 15.27, 14787.33, 187500.00, 187500.00, -187500.02, -187500.02, -187500.02, -187500.02, 0.000, 0.000, 0.000, 22:54:55.904, 1541908495904
65, -99.78, 14862.93, 187500.00, 187500.00, -187500.02, -187500.02, -187500.02, -187500.02, 0.150, 0.778, 0.610, 22:54:55.904, 1541908495904
66, -285.10, 14636.77, 187500.00, 187500.00, -187500.02, -187500.02, -187500.02, -187500.02, 0.000, 0.000, 0.000, 22:54:55.905, 1541908495905
67, -279.82, 14446.96, 187500.00, 187500.00, -187500.02, -187500.02, -187500.02, -187500.02, 0.000, 0.000, 0.000, 22:54:55.905, 1541908495905
68, -26.84, 14706.84, 187500.00, 187500.00, -187500.02, -187500.02, -187500.02, -187500.02, 0.000, 0.000, 0.000, 22:54:55.905, 1541908495905
69, -62.23, 14877.77, 187500.00, 187500.00, -187500.02, -187500.02, -187500.02, -187500.02, 0.000, 0.000, 0.000, 22:54:55.905, 1541908495905
70, -265.94, 14679.24, 187500.00, 187500.00, -187500.02, -187500.02, -187500.02, -187500.02, 0.000, 0.000, 0.000, 22:54:55.905, 1541908495905
71, -305.57, 14445.02, 187500.00, 187500.00, -187500.02, -187500.02, -187500.02, -187500.02, 0.000, 0.000, 0.000, 22:54:55.905, 1541908495905
72, -57.91, 14615.80, 187500.00, 187500.00, -187500.02, -187500.02, -187500.02, -187500.02, 0.000, 0.000, 0.000, 22:54:55.905, 1541908495905
73, -31.40, 14861.32, 187500.00, 187500.00, -187500.02, -187500.02, -187500.02, -187500.02, 0.000, 0.000, 0.000, 22:54:55.906, 1541908495906
74, -234.34, 14703.40, 187500.00, 187500.00, -187500.02, -187500.02, -187500.02, -187500.02, 0.148, 0.774, 0.612, 22:54:55.906, 1541908495906
75, -320.41, 14459.92, 187500.00, 187500.00, -187500.02, -187500.02, -187500.02, -187500.02, 0.000, 0.000, 0.000, 22:54:55.906, 1541908495906
76, -106.26, 14527.49, 187500.00, 187500.00, -187500.02, -187500.02, -187500.02, -187500.02, 0.000, 0.000, 0.000, 22:54:55.906, 1541908495906
77, -7.53, 14832.71, 187500.00, 187500.00, -187500.02, -187500.02, -187500.02, -187500.02, 0.000, 0.000, 0.000, 22:54:55.906, 1541908495906
78, -210.89, 14732.50, 187500.00, 187500.00, -187500.02, -187500.02, -187500.02, -187500.02, 0.000, 0.000, 0.000, 22:54:55.906, 1541908495906
79, -304.99, 14510.62, 187500.00, 187500.00, -187500.02, -187500.02, -187500.02, -187500.02, 0.000, 0.000, 0.000, 22:54:55.908, 1541908495908
80, -142.85, 14482.75, 187500.00, 187500.00, -187500.02, -187500.02, -187500.02, -187500.02, 0.000, 0.000, 0.000, 22:54:55.908, 1541908495908
81, 21.48, 14812.81, 187500.00, 187500.00, -187500.02, -187500.02, -187500.02, -187500.02, 0.000, 0.000, 0.000, 22:54:55.908, 1541908495908
82, -160.44, 14767.19, 187500.00, 187500.00, -187500.02, -187500.02, -187500.02, -187500.02, 0.000, 0.000, 0.000, 22:54:55.909, 1541908495909
83, -317.17, 14521.50, 187500.00, 187500.00, -187500.02, -187500.02, -187500.02, -187500.02, 0.000, 0.000, 0.000, 22:54:55.909, 1541908495909
84, -235.39, 14425.59, 187500.00, 187500.00, -187500.02, -187500.02, -187500.02, -187500.02, 0.150, 0.766, 0.610, 22:54:55.909, 1541908495909
85, 19.02, 14786.19, 187500.00, 187500.00, -187500.02, -187500.02, -187500.02, -187500.02, 0.000, 0.000, 0.000, 22:54:55.909, 1541908495909
86, -121.03, 14801.93, 187500.00, 187500.00, -187500.02, -187500.02, -187500.02, -187500.02, 0.000, 0.000, 0.000, 22:54:55.910, 1541908495910
87, -306.73, 14562.52, 187500.00, 187500.00, -187500.02, -187500.02, -187500.02, -187500.02, 0.000, 0.000, 0.000, 22:54:55.910, 1541908495910
88, -253.27, 14419.53, 187500.00, 187500.00, -187500.02, -187500.02, -187500.02, -187500.02, 0.000, 0.000, 0.000, 22:54:55.911, 1541908495911
89, -0.20, 14736.17, 187500.00, 187500.00, -187500.02, -187500.02, -187500.02, -187500.02, 0.000, 0.000, 0.000, 22:54:55.911, 1541908495911
90, -108.79, 14819.63, 187500.00, 187500.00, -187500.02, -187500.02, -187500.02, -187500.02, 0.000, 0.000, 0.000, 22:54:55.911, 1541908495911
91, -286.68, 14612.47, 187500.00, 187500.00, -187500.02, -187500.02, -187500.02, -187500.02, 0.000, 0.000, 0.000, 22:54:55.912, 1541908495912
92, -275.64, 14417.48, 187500.00, 187500.00, -187500.02, -187500.02, -187500.02, -187500.02, 0.000, 0.000, 0.000, 22:54:55.912, 1541908495912
93, -0.29, 14669.65, 187500.00, 187500.00, -187500.02, -187500.02, -187500.02, -187500.02, 0.000, 0.000, 0.000, 22:54:55.912, 1541908495912
94, -57.91, 14839.30, 187500.00, 187500.00, -187500.02, -187500.02, -187500.02, -187500.02, 0.156, 0.766, 0.612, 22:54:55.912, 1541908495912
95, -289.59, 14650.92, 187500.00, 187500.00, -187500.02, -187500.02, -187500.02, -187500.02, 0.000, 0.000, 0.000, 22:54:55.912, 1541908495912
96, -337.31, 14428.65, 187500.00, 187500.00, -187500.02, -187500.02, -187500.02, -187500.02, 0.000, 0.000, 0.000, 22:54:55.913, 1541908495913
97, -71.39, 14584.92, 187500.00, 187500.00, -187500.02, -187500.02, -187500.02, -187500.02, 0.000, 0.000, 0.000, 22:54:55.913, 1541908495913
98, -34.40, 14838.85, 187500.00, 187500.00, -187500.02, -187500.02, -187500.02, -187500.02, 0.000, 0.000, 0.000, 22:54:55.913, 1541908495913
99, -238.65, 14694.66, 187500.00, 187500.00, -187500.02, -187500.02, -187500.02, -187500.02, 0.000, 0.000, 0.000, 22:54:55.913, 1541908495913
100, -320.55, 14456.77, 187500.00, 187500.00, -187500.02, -187500.02, -187500.02, -187500.02, 0.000, 0.000, 0.000, 22:54:55.913, 1541908495913
101, -103.91, 14518.55, 187500.00, 187500.00, -187500.02, -187500.02, -187500.02, -187500.02, 0.000, 0.000, 0.000, 22:54:55.913, 1541908495913
102, -7.47, 14832.86, 187500.00, 187500.00, -187500.02, -187500.02, -187500.02, -187500.02, 0.000, 0.000, 0.000, 22:54:55.913, 1541908495913
103, -212.27, 14734.14, 187500.00, 187500.00, -187500.02, -187500.02, -187500.02, -187500.02, 0.000, 0.000, 0.000, 22:54:55.913, 1541908495913
104, -320.12, 14498.10, 187500.00, 187500.00, -187500.02, -187500.02, -187500.02, -187500.02, 0.154, 0.770, 0.614, 22:54:55.913, 1541908495913
105, -175.37, 14468.80, 187500.00, 187500.00, -187500.02, -187500.02, -187500.02, -187500.02, 0.000, 0.000, 0.000, 22:54:56.363, 1541908496363
106, -6.35, 14802.84, 187500.00, 187500.00, -187500.02, -187500.02, -187500.02, -187500.02, 0.000, 0.000, 0.000, 22:54:56.363, 1541908496363
107, -179.86, 14769.09, 187500.00, 187500.00, -187500.02, -187500.02, -187500.02, -187500.02, 0.000, 0.000, 0.000, 22:54:56.364, 1541908496364
108, -319.61, 14537.26, 187500.00, 187500.00, -187500.02, -187500.02, -187500.02, -187500.02, 0.000, 0.000, 0.000, 22:54:56.364, 1541908496364
109, -212.63, 14433.68, 187500.00, 187500.00, -187500.02, -187500.02, -187500.02, -187500.02, 0.000, 0.000, 0.000, 22:54:56.364, 1541908496364
110, 12.56, 14771.89, 187500.00, 187500.00, -187500.02, -187500.02, -187500.02, -187500.02, 0.000, 0.000, 0.000, 22:54:56.364, 1541908496364
111, -136.88, 14820.48, 187500.00, 187500.00, -187500.02, -187500.02, -187500.02, -187500.02, 0.000, 0.000, 0.000, 22:54:56.364, 1541908496364
112, -296.07, 14596.09, 187500.00, 187500.00, -187500.02, -187500.02, -187500.02, -187500.02, 0.000, 0.000, 0.000, 22:54:56.364, 1541908496364
113, -236.84, 14428.99, 187500.00, 187500.00, -187500.02, -187500.02, -187500.02, -187500.02, 0.154, 0.774, 0.614, 22:54:56.364, 1541908496364
114, 25.75, 14741.33, 187500.00, 187500.00, -187500.02, -187500.02, -187500.02, -187500.02, 0.000, 0.000, 0.000, 22:54:56.364, 1541908496364
115, -84.51, 14862.99, 187500.00, 187500.00, -187500.02, -187500.02, -187500.02, -187500.02, 0.000, 0.000, 0.000, 22:54:56.364, 1541908496364
116, -287.15, 14650.18, 187500.00, 187500.00, -187500.02, -187500.02, -187500.02, -187500.02, 0.000, 0.000, 0.000, 22:54:56.364, 1541908496364
117, -291.40, 14443.54, 187500.00, 187500.00, -187500.02, -187500.02, -187500.02, -187500.02, 0.000, 0.000, 0.000, 22:54:56.364, 1541908496364
118, -16.72, 14688.76, 187500.00, 187500.00, -187500.02, -187500.02, -187500.02, -187500.02, 0.000, 0.000, 0.000, 22:54:56.365, 1541908496365
119, -48.97, 14891.92, 187500.00, 187500.00, -187500.02, -187500.02, -187500.02, -187500.02, 0.000, 0.000, 0.000, 22:54:56.365, 1541908496365
120, -268.42, 14716.12, 187500.00, 187500.00, -187500.02, -187500.02, -187500.02, -187500.02, 0.000, 0.000, 0.000, 22:54:56.366, 1541908496366
121, -321.87, 14477.13, 187500.00, 187500.00, -187500.02, -187500.02, -187500.02, -187500.02, 0.000, 0.000, 0.000, 22:54:56.366, 1541908496366
122, -66.25, 14628.75, 187500.00, 187500.00, -187500.02, -187500.02, -187500.02, -187500.02, 0.000, 0.000, 0.000, 22:54:56.366, 1541908496366
123, -37.60, 14898.38, 187500.00, 187500.00, -187500.02, -187500.02, -187500.02, -187500.02, 0.152, 0.772, 0.616, 22:54:56.367, 1541908496367
124, -255.91, 14753.22, 187500.00, 187500.00, -187500.02, -187500.02, -187500.02, -187500.02, 0.000, 0.000, 0.000, 22:54:56.368, 1541908496368
125, -339.10, 14519.74, 187500.00, 187500.00, -187500.02, -187500.02, -187500.02, -187500.02, 0.000, 0.000, 0.000, 22:54:56.369, 1541908496369
126, -125.75, 14572.22, 187500.00, 187500.00, -187500.02, -187500.02, -187500.02, -187500.02, 0.000, 0.000, 0.000, 22:54:56.370, 1541908496370
127, -6.46, 14911.09, 187500.00, 187500.00, -187500.02, -187500.02, -187500.02, -187500.02, 0.000, 0.000, 0.000, 22:54:56.371, 1541908496371
128, -192.85, 14824.86, 187500.00, 187500.00, -187500.02, -187500.02, -187500.02, -187500.02, 0.000, 0.000, 0.000, 22:54:56.374, 1541908496374
129, -302.17, 14576.15, 187500.00, 187500.00, -187500.02, -187500.02, -187500.02, -187500.02, 0.000, 0.000, 0.000, 22:54:56.375, 1541908496375
130, -148.97, 14530.29, 187500.00, 187500.00, -187500.02, -187500.02, -187500.02, -187500.02, 0.000, 0.000, 0.000, 22:54:56.376, 1541908496376
131, 24.45, 14880.61, 187500.00, 187500.00, -187500.02, -187500.02, -187500.02, -187500.02, 0.000, 0.000, 0.000, 22:54:56.376, 1541908496376
132, -171.71, 14857.52, 187500.00, 187500.00, -187500.02, -187500.02, -187500.02, -187500.02, 0.000, 0.000, 0.000, 22:54:56.376, 1541908496376
133, -323.56, 14616.99, 187500.00, 187500.00, -187500.02, -187500.02, -187500.02, -187500.02, 0.154, 0.774, 0.612, 22:54:56.377, 1541908496377
134, -232.61, 14487.95, 187500.00, 187500.00, -187500.02, -187500.02, -187500.02, -187500.02, 0.000, 0.000, 0.000, 22:54:56.377, 1541908496377
135, 7.78, 14822.69, 187500.00, 187500.00, -187500.02, -187500.02, -187500.02, -187500.02, 0.000, 0.000, 0.000, 22:54:56.377, 1541908496377
136, -127.63, 14890.33, 187500.00, 187500.00, -187500.02, -187500.02, -187500.02, -187500.02, 0.000, 0.000, 0.000, 22:54:56.378, 1541908496378
137, -297.19, 14683.78, 187500.00, 187500.00, -187500.02, -187500.02, -187500.02, -187500.02, 0.000, 0.000, 0.000, 22:54:56.378, 1541908496378
138, -272.74, 14485.92, 187500.00, 187500.00, -187500.02, -187500.02, -187500.02, -187500.02, 0.000, 0.000, 0.000, 22:54:56.378, 1541908496378
139, -11.49, 14762.61, 187500.00, 187500.00, -187500.02, -187500.02, -187500.02, -187500.02, 0.000, 0.000, 0.000, 22:54:56.378, 1541908496378
140, -86.95, 14902.69, 187500.00, 187500.00, -187500.02, -187500.02, -187500.02, -187500.02, 0.000, 0.000, 0.000, 22:54:56.378, 1541908496378
141, -266.52, 14706.20, 187500.00, 187500.00, -187500.02, -187500.02, -187500.02, -187500.02, 0.000, 0.000, 0.000, 22:54:56.378, 1541908496378
142, -275.37, 14500.38, 187500.00, 187500.00, -187500.02, -187500.02, -187500.02, -187500.02, 0.000, 0.000, 0.000, 22:54:56.378, 1541908496378
143, -38.85, 14706.64, 187500.00, 187500.00, -187500.02, -187500.02, -187500.02, -187500.02, 0.154, 0.776, 0.614, 22:54:56.378, 1541908496378
144, -51.83, 14913.84, 187500.00, 187500.00, -187500.02, -187500.02, -187500.02, -187500.02, 0.000, 0.000, 0.000, 22:54:56.378, 1541908496378
145, -256.42, 14748.95, 187500.00, 187500.00, -187500.02, -187500.02, -187500.02, -187500.02, 0.000, 0.000, 0.000, 22:54:56.378, 1541908496378
146, -308.43, 14513.23, 187500.00, 187500.00, -187500.02, -187500.02, -187500.02, -187500.02, 0.000, 0.000, 0.000, 22:54:56.379, 1541908496379
147, -69.65, 14634.78, 187500.00, 187500.00, -187500.02, -187500.02, -187500.02, -187500.02, 0.000, 0.000, 0.000, 22:54:56.379, 1541908496379
148, -13.86, 14930.56, 187500.00, 187500.00, -187500.02, -187500.02, -187500.02, -187500.02, 0.000, 0.000, 0.000, 22:54:56.379, 1541908496379
149, -223.96, 14799.85, 187500.00, 187500.00, -187500.02, -187500.02, -187500.02, -187500.02, 0.000, 0.000, 0.000, 22:54:56.379, 1541908496379
150, -310.60, 14549.17, 187500.00, 187500.00, -187500.02, -187500.02, -187500.02, -187500.02, 0.000, 0.000, 0.000, 22:54:56.379, 1541908496379
151, -129.37, 14574.30, 187500.00, 187500.00, -187500.02, -187500.02, -187500.02, -187500.02, 0.000, 0.000, 0.000, 22:54:56.379, 1541908496379
152, 12.05, 14907.12, 187500.00, 187500.00, -187500.02, -187500.02, -187500.02, -187500.02, 0.000, 0.000, 0.000, 22:54:56.379, 1541908496379
153, -171.71, 14846.94, 187500.00, 187500.00, -187500.02, -187500.02, -187500.02, -187500.02, 0.156, 0.770, 0.616, 22:54:56.379, 1541908496379
154, -306.15, 14587.22, 187500.00, 187500.00, -187500.02, -187500.02, -187500.02, -187500.02, 0.000, 0.000, 0.000, 22:54:56.379, 1541908496379
155, -176.96, 14504.29, 187500.00, 187500.00, -187500.02, -187500.02, -187500.02, -187500.02, 0.000, 0.000, 0.000, 22:54:56.379, 1541908496379
156, 23.65, 14872.65, 187500.00, 187500.00, -187500.02, -187500.02, -187500.02, -187500.02, 0.000, 0.000, 0.000, 22:54:56.379, 1541908496379
157, -141.04, 14874.42, 187500.00, 187500.00, -187500.02, -187500.02, -187500.02, -187500.02, 0.000, 0.000, 0.000, 22:54:56.380, 1541908496380
158, -308.72, 14640.71, 187500.00, 187500.00, -187500.02, -187500.02, -187500.02, -187500.02, 0.000, 0.000, 0.000, 22:54:56.380, 1541908496380
159, -224.72, 14508.38, 187500.00, 187500.00, -187500.02, -187500.02, -187500.02, -187500.02, 0.000, 0.000, 0.000, 22:54:56.380, 1541908496380
160, 22.24, 14842.92, 187500.00, 187500.00, -187500.02, -187500.02, -187500.02, -187500.02, 0.000, 0.000, 0.000, 22:54:56.380, 1541908496380
161, -91.73, 14895.89, 187500.00, 187500.00, -187500.02, -187500.02, -187500.02, -187500.02, 0.000, 0.000, 0.000, 22:54:56.380, 1541908496380
162, -282.03, 14677.41, 187500.00, 187500.00, -187500.02, -187500.02, -187500.02, -187500.02, 0.162, 0.768, 0.612, 22:54:56.380, 1541908496380
163, -271.93, 14480.69, 187500.00, 187500.00, -187500.02, -187500.02, -187500.02, -187500.02, 0.000, 0.000, 0.000, 22:54:56.380, 1541908496380
164, 2.37, 14758.54, 187500.00, 187500.00, -187500.02, -187500.02, -187500.02, -187500.02, 0.000, 0.000, 0.000, 22:54:56.380, 1541908496380
165, -77.00, 14903.76, 187500.00, 187500.00, -187500.02, -187500.02, -187500.02, -187500.02, 0.000, 0.000, 0.000, 22:54:56.380, 1541908496380
166, -284.02, 14708.72, 187500.00, 187500.00, -187500.02, -187500.02, -187500.02, -187500.02, 0.000, 0.000, 0.000, 22:54:56.380, 1541908496380
167, -300.83, 14489.65, 187500.00, 187500.00, -187500.02, -187500.02, -187500.02, -187500.02, 0.000, 0.000, 0.000, 22:54:56.380, 1541908496380
168, -40.66, 14700.72, 187500.00, 187500.00, -187500.02, -187500.02, -187500.02, -187500.02, 0.000, 0.000, 0.000, 22:54:56.381, 1541908496381
169, -43.74, 14925.02, 187500.00, 187500.00, -187500.02, -187500.02, -187500.02, -187500.02, 0.000, 0.000, 0.000, 22:54:56.381, 1541908496381
170, -246.03, 14761.29, 187500.00, 187500.00, -187500.02, -187500.02, -187500.02, -187500.02, 0.000, 0.000, 0.000, 22:54:56.381, 1541908496381
171, -301.32, 14527.43, 187500.00, 187500.00, -187500.02, -187500.02, -187500.02, -187500.02, 0.000, 0.000, 0.000, 22:54:56.381, 1541908496381
172, -71.61, 14637.69, 187500.00, 187500.00, -187500.02, -187500.02, -187500.02, -187500.02, 0.158, 0.766, 0.610, 22:54:56.381, 1541908496381
173, -1.72, 14919.12, 187500.00, 187500.00, -187500.02, -187500.02, -187500.02, -187500.02, 0.000, 0.000, 0.000, 22:54:56.381, 1541908496381
174, -213.37, 14813.71, 187500.00, 187500.00, -187500.02, -187500.02, -187500.02, -187500.02, 0.000, 0.000, 0.000, 22:54:56.381, 1541908496381
175, -318.18, 14575.75, 187500.00, 187500.00, -187500.02, -187500.02, -187500.02, -187500.02, 0.000, 0.000, 0.000, 22:54:56.381, 1541908496381
176, -136.41, 14579.68, 187500.00, 187500.00, -187500.02, -187500.02, -187500.02, -187500.02, 0.000, 0.000, 0.000, 22:54:56.381, 1541908496381
177, 20.41, 14927.12, 187500.00, 187500.00, -187500.02, -187500.02, -187500.02, -187500.02, 0.000, 0.000, 0.000, 22:54:56.381, 1541908496381
178, -177.79, 14865.09, 187500.00, 187500.00, -187500.02, -187500.02, -187500.02, -187500.02, 0.000, 0.000, 0.000, 22:54:56.381, 1541908496381
179, -318.18, 14611.40, 187500.00, 187500.00, -187500.02, -187500.02, -187500.02, -187500.02, 0.000, 0.000, 0.000, 22:54:56.381, 1541908496381
180, -176.11, 14535.85, 187500.00, 187500.00, -187500.02, -187500.02, -187500.02, -187500.02, 0.000, 0.000, 0.000, 22:54:56.382, 1541908496382
181, 40.52, 14886.55, 187500.00, 187500.00, -187500.02, -187500.02, -187500.02, -187500.02, 0.000, 0.000, 0.000, 22:54:56.382, 1541908496382
182, -134.65, 14892.94, 187500.00, 187500.00, -187500.02, -187500.02, -187500.02, -187500.02, 0.152, 0.768, 0.610, 22:54:56.382, 1541908496382
183, -298.51, 14662.18, 187500.00, 187500.00, -187500.02, -187500.02, -187500.02, -187500.02, 0.000, 0.000, 0.000, 22:54:56.382, 1541908496382
184, -228.70, 14525.19, 187500.00, 187500.00, -187500.02, -187500.02, -187500.02, -187500.02, 0.000, 0.000, 0.000, 22:54:56.382, 1541908496382
185, 25.12, 14862.61, 187500.00, 187500.00, -187500.02, -187500.02, -187500.02, -187500.02, 0.000, 0.000, 0.000, 22:54:56.382, 1541908496382
186, -72.82, 14945.72, 187500.00, 187500.00, -187500.02, -187500.02, -187500.02, -187500.02, 0.000, 0.000, 0.000, 22:54:56.382, 1541908496382
187, -240.88, 14728.75, 187500.00, 187500.00, -187500.02, -187500.02, -187500.02, -187500.02, 0.000, 0.000, 0.000, 22:54:56.382, 1541908496382
188, -253.11, 14527.87, 187500.00, 187500.00, -187500.02, -187500.02, -187500.02, -187500.02, 0.000, 0.000, 0.000, 22:54:56.382, 1541908496382
189, 5.25, 14789.23, 187500.00, 187500.00, -187500.02, -187500.02, -187500.02, -187500.02, 0.000, 0.000, 0.000, 22:54:56.382, 1541908496382
190, -67.68, 14950.03, 187500.00, 187500.00, -187500.02, -187500.02, -187500.02, -187500.02, 0.000, 0.000, 0.000, 22:54:56.382, 1541908496382
191, -263.93, 14768.49, 187500.00, 187500.00, -187500.02, -187500.02, -187500.02, -187500.02, 0.000, 0.000, 0.000, 22:54:56.383, 1541908496383
192, -296.67, 14539.36, 187500.00, 187500.00, -187500.02, -187500.02, -187500.02, -187500.02, 0.154, 0.766, 0.614, 22:54:56.383, 1541908496383
193, -42.71, 14719.58, 187500.00, 187500.00, -187500.02, -187500.02, -187500.02, -187500.02, 0.000, 0.000, 0.000, 22:54:56.383, 1541908496383
194, -16.70, 14955.13, 187500.00, 187500.00, -187500.02, -187500.02, -187500.02, -187500.02, 0.000, 0.000, 0.000, 22:54:56.383, 1541908496383
195, -201.75, 14803.60, 187500.00, 187500.00, -187500.02, -187500.02, -187500.02, -187500.02, 0.000, 0.000, 0.000, 22:54:56.383, 1541908496383
196, -290.51, 14561.27, 187500.00, 187500.00, -187500.02, -187500.02, -187500.02, -187500.02, 0.000, 0.000, 0.000, 22:54:56.383, 1541908496383
197, -67.37, 14656.82, 187500.00, 187500.00, -187500.02, -187500.02, -187500.02, -187500.02, 0.000, 0.000, 0.000, 22:54:56.383, 1541908496383
198, 39.54, 14959.98, 187500.00, 187500.00, -187500.02, -187500.02, -187500.02, -187500.02, 0.000, 0.000, 0.000, 22:54:56.383, 1541908496383
199, -183.93, 14837.13, 187500.00, 187500.00, -187500.02, -187500.02, -187500.02, -187500.02, 0.000, 0.000, 0.000, 22:54:56.383, 1541908496383
200, -342.63, 14584.24, 187500.00, 187500.00, -187500.02, -187500.02, -187500.02, -187500.02, 0.000, 0.000, 0.000, 22:54:56.384, 1541908496384
201, -164.42, 14574.14, 187500.00, 187500.00, -187500.02, -187500.02, -187500.02, -187500.02, 0.158, 0.762, 0.616, 22:54:56.384, 1541908496384
202, 10.26, 14916.28, 187500.00, 187500.00, -187500.02, -187500.02, -187500.02, -187500.02, 0.000, 0.000, 0.000, 22:54:56.384, 1541908496384
203, -167.73, 14867.96, 187500.00, 187500.00, -187500.02, -187500.02, -187500.02, -187500.02, 0.000, 0.000, 0.000, 22:54:56.384, 1541908496384
204, -301.26, 14618.80, 187500.00, 187500.00, -187500.02, -187500.02, -187500.02, -187500.02, 0.000, 0.000, 0.000, 22:54:56.384, 1541908496384
205, -193.43, 14524.01, 187500.00, 187500.00, -187500.02, -187500.02, -187500.02, -187500.02, 0.000, 0.000, 0.000, 22:54:56.384, 1541908496384
206, 24.88, 14874.50, 187500.00, 187500.00, -187500.02, -187500.02, -187500.02, -187500.02, 0.000, 0.000, 0.000, 22:54:56.384, 1541908496384
207, -129.28, 14889.21, 187500.00, 187500.00, -187500.02, -187500.02, -187500.02, -187500.02, 0.000, 0.000, 0.000, 22:54:56.384, 1541908496384
208, -278.53, 14660.08, 187500.00, 187500.00, -187500.02, -187500.02, -187500.02, -187500.02, 0.000, 0.000, 0.000, 22:54:56.384, 1541908496384
209, -213.48, 14508.11, 187500.00, 187500.00, -187500.02, -187500.02, -187500.02, -187500.02, 0.000, 0.000, 0.000, 22:54:56.384, 1541908496384
210, 12.32, 14815.47, 187500.00, 187500.00, -187500.02, -187500.02, -187500.02, -187500.02, 0.000, 0.000, 0.000, 22:54:56.385, 1541908496385
211, -102.30, 14904.43, 187500.00, 187500.00, -187500.02, -187500.02, -187500.02, -187500.02, 0.156, 0.760, 0.610, 22:54:56.385, 1541908496385
212, -291.11, 14698.84, 187500.00, 187500.00, -187500.02, -187500.02, -187500.02, -187500.02, 0.000, 0.000, 0.000, 22:54:56.385, 1541908496385
213, -284.25, 14490.95, 187500.00, 187500.00, -187500.02, -187500.02, -187500.02, -187500.02, 0.000, 0.000, 0.000, 22:54:56.385, 1541908496385
214, -3.64, 14759.21, 187500.00, 187500.00, -187500.02, -187500.02, -187500.02, -187500.02, 0.000, 0.000, 0.000, 22:54:56.385, 1541908496385
215, -49.53, 14940.20, 187500.00, 187500.00, -187500.02, -187500.02, -187500.02, -187500.02, 0.000, 0.000, 0.000, 22:54:56.385, 1541908496385
216, -255.53, 14743.17, 187500.00, 187500.00, -187500.02, -187500.02, -187500.02, -187500.02, 0.000, 0.000, 0.000, 22:54:56.387, 1541908496387
217, -294.66, 14517.82, 187500.00, 187500.00, -187500.02, -187500.02, -187500.02, -187500.02, 0.000, 0.000, 0.000, 22:54:56.387, 1541908496387
218, -33.62, 14690.77, 187500.00, 187500.00, -187500.02, -187500.02, -187500.02, -187500.02, 0.000, 0.000, 0.000, 22:54:56.388, 1541908496388
219, -3.04, 14942.23, 187500.00, 187500.00, -187500.02, -187500.02, -187500.02, -187500.02, 0.000, 0.000, 0.000, 22:54:56.388, 1541908496388
220, -220.14, 14794.02, 187500.00, 187500.00, -187500.02, -187500.02, -187500.02, -187500.02, 0.000, 0.000, 0.000, 22:54:56.388, 1541908496388
221, -307.25, 14549.60, 187500.00, 187500.00, -187500.02, -187500.02, -187500.02, -187500.02, 0.158, 0.758, 0.608, 22:54:56.388, 1541908496388
222, -86.84, 14620.12, 187500.00, 187500.00, -187500.02, -187500.02, -187500.02, -187500.02, 0.000, 0.000, 0.000, 22:54:56.388, 1541908496388
223, 11.69, 14923.72, 187500.00, 187500.00, -187500.02, -187500.02, -187500.02, -187500.02, 0.000, 0.000, 0.000, 22:54:56.388, 1541908496388
224, -191.98, 14816.17, 187500.00, 187500.00, -187500.02, -187500.02, -187500.02, -187500.02, 0.000, 0.000, 0.000, 22:54:56.389, 1541908496389
225, -306.49, 14579.08, 187500.00, 187500.00, -187500.02, -187500.02, -187500.02, -187500.02, 0.000, 0.000, 0.000, 22:54:56.389, 1541908496389
226, -134.74, 14570.79, 187500.00, 187500.00, -187500.02, -187500.02, -187500.02, -187500.02, 0.000, 0.000, 0.000, 22:54:56.844, 1541908496844
227, 33.17, 14911.72, 187500.00, 187500.00, -187500.02, -187500.02, -187500.02, -187500.02, 0.000, 0.000, 0.000, 22:54:56.844, 1541908496844
228, -164.04, 14868.45, 187500.00, 187500.00, -187500.02, -187500.02, -187500.02, -187500.02, 0.000, 0.000, 0.000, 22:54:56.844, 1541908496844
229, -284.56, 14642.78, 187500.00, 187500.00, -187500.02, -187500.02, -187500.02, -187500.02, 0.000, 0.000, 0.000, 22:54:56.844, 1541908496844
230, -165.56, 14538.98, 187500.00, 187500.00, -187500.02, -187500.02, -187500.02, -187500.02, 0.000, 0.000, 0.000, 22:54:56.844, 1541908496844
231, 53.38, 14880.45, 187500.00, 187500.00, -187500.02, -187500.02, -187500.02, -187500.02, 0.162, 0.760, 0.610, 22:54:56.845, 1541908496845
232, -98.15, 14906.69, 187500.00, 187500.00, -187500.02, -187500.02, -187500.02, -187500.02, 0.000, 0.000, 0.000, 22:54:56.845, 1541908496845
233, -267.73, 14672.96, 187500.00, 187500.00, -187500.02, -187500.02, -187500.02, -187500.02, 0.000, 0.000, 0.000, 22:54:56.845, 1541908496845
234, -219.23, 14498.41, 187500.00, 187500.00, -187500.02, -187500.02, -187500.02, -187500.02, 0.000, 0.000, 0.000, 22:54:56.845, 1541908496845
235, 38.47, 14800.43, 187500.00, 187500.00, -187500.02, -187500.02, -187500.02, -187500.02, 0.000, 0.000, 0.000, 22:54:56.845, 1541908496845
236, -76.93, 14908.37, 187500.00, 187500.00, -187500.02, -187500.02, -187500.02, -187500.02, 0.000, 0.000, 0.000, 22:54:56.845, 1541908496845
237, -277.45, 14702.04, 187500.00, 187500.00, -187500.02, -187500.02, -187500.02, -187500.02, 0.000, 0.000, 0.000, 22:54:56.845, 1541908496845
238, -293.97, 14484.65, 187500.00, 187500.00, -187500.02, -187500.02, -187500.02, -187500.02, 0.000, 0.000, 0.000, 22:54:56.845, 1541908496845
239, -34.78, 14722.78, 187500.00, 187500.00, -187500.02, -187500.02, -187500.02, -187500.02, 0.000, 0.000, 0.000, 22:54:56.845, 1541908496845
240, -60.04, 14917.46, 187500.00, 187500.00, -187500.02, -187500.02, -187500.02, -187500.02, 0.000, 0.000, 0.000, 22:54:56.845, 1541908496845
241, -266.86, 14730.60, 187500.00, 187500.00, -187500.02, -187500.02, -187500.02, -187500.02, 0.158, 0.768, 0.610, 22:54:56.845, 1541908496845
242, -304.16, 14497.77, 187500.00, 187500.00, -187500.02, -187500.02, -187500.02, -187500.02, 0.000, 0.000, 0.000, 22:54:56.845, 1541908496845
243, -45.46, 14646.38, 187500.00, 187500.00, -187500.02, -187500.02, -187500.02, -187500.02, 0.000, 0.000, 0.000, 22:54:56.845, 1541908496845
244, -11.22, 14914.40, 187500.00, 187500.00, -187500.02, -187500.02, -187500.02, -187500.02, 0.000, 0.000, 0.000, 22:54:56.845, 1541908496845
245, -232.28, 14770.30, 187500.00, 187500.00, -187500.02, -187500.02, -187500.02, -187500.02, 0.000, 0.000, 0.000, 22:54:56.845, 1541908496845
246, -318.91, 14526.93, 187500.00, 187500.00, -187500.02, -187500.02, -187500.02, -187500.02, 0.000, 0.000, 0.000, 22:54:56.845, 1541908496845
247, -112.03, 14591.75, 187500.00, 187500.00, -187500.02, -187500.02, -187500.02, -187500.02, 0.000, 0.000, 0.000, 22:54:56.846, 1541908496846
248, 11.20, 14903.34, 187500.00, 187500.00, -187500.02, -187500.02, -187500.02, -187500.02, 0.000, 0.000, 0.000, 22:54:56.846, 1541908496846
249, -195.44, 14814.98, 187500.00, 187500.00, -187500.02, -187500.02, -187500.02, -187500.02, 0.000, 0.000, 0.000, 22:54:56.846, 1541908496846
250, -323.16, 14579.06, 187500.00, 187500.00, -187500.02, -187500.02, -187500.02, -187500.02, 0.156, 0.768, 0.612, 22:54:56.846, 1541908496846
251, -163.77, 14539.88, 187500.00, 187500.00, -187500.02, -187500.02, -187500.02, -187500.02, 0.000, 0.000, 0.000, 22:54:56.847, 1541908496847
252, 22.04, 14878.30, 187500.00, 187500.00, -187500.02, -187500.02, -187500.02, -187500.02, 0.000, 0.000, 0.000, 22:54:56.847, 1541908496847
253, -161.09, 14841.18, 187500.00, 187500.00, -187500.02, -187500.02, -187500.02, -187500.02, 0.000, 0.000, 0.000, 22:54:56.847, 1541908496847
254, -305.48, 14609.10, 187500.00, 187500.00, -187500.02, -187500.02, -187500.02, -187500.02, 0.000, 0.000, 0.000, 22:54:56.847, 1541908496847
255, -202.80, 14492.65, 187500.00, 187500.00, -187500.02, -187500.02, -187500.02, -187500.02, 0.000, 0.000, 0.000, 22:54:56.847, 1541908496847
0, 41.48, 14834.34, 187500.00, 187500.00, -187500.02, -187500.02, -187500.02, -187500.02, 0.000, 0.000, 0.000, 22:54:56.847, 1541908496847
1, -117.50, 14879.53, 187500.00, 187500.00, -187500.02, -187500.02, -187500.02, -187500.02, 0.000, 0.000, 0.000, 22:54:56.848, 1541908496848
2, -288.49, 14663.82, 187500.00, 187500.00, -187500.02, -187500.02, -187500.02, -187500.02, 0.000, 0.000, 0.000, 22:54:56.848, 1541908496848
3, -259.10, 14474.01, 187500.00, 187500.00, -187500.02, -187500.02, -187500.02, -187500.02, 0.000, 0.000, 0.000, 22:54:56.848, 1541908496848
4, -3.44, 14768.89, 187500.00, 187500.00, -187500.02, -187500.02, -187500.02, -187500.02, 0.156, 0.762, 0.608, 22:54:56.849, 1541908496849
5, -87.31, 14901.97, 187500.00, 187500.00, -187500.02, -187500.02, -187500.02, -187500.02, 0.000, 0.000, 0.000, 22:54:56.849, 1541908496849
6, -277.50, 14699.69, 187500.00, 187500.00, -187500.02, -187500.02, -187500.02, -187500.02, 0.000, 0.000, 0.000, 22:54:56.849, 1541908496849
7, -276.18, 14489.03, 187500.00, 187500.00, -187500.02, -187500.02, -187500.02, -187500.02, 0.000, 0.000, 0.000, 22:54:56.849, 1541908496849
8, -18.26, 14707.45, 187500.00, 187500.00, -187500.02, -187500.02, -187500.02, -187500.02, 0.000, 0.000, 0.000, 22:54:56.850, 1541908496850
9, -39.09, 14908.34, 187500.00, 187500.00, -187500.02, -187500.02, -187500.02, -187500.02, 0.000, 0.000, 0.000, 22:54:56.850, 1541908496850
10, -246.79, 14743.14, 187500.00, 187500.00, -187500.02, -187500.02, -187500.02, -187500.02, 0.000, 0.000, 0.000, 22:54:56.850, 1541908496850
11, -305.37, 14504.14, 187500.00, 187500.00, -187500.02, -187500.02, -187500.02, -187500.02, 0.000, 0.000, 0.000, 22:54:56.851, 1541908496851
12, -57.38, 14630.58, 187500.00, 187500.00, -187500.02, -187500.02, -187500.02, -187500.02, 0.000, 0.000, 0.000, 22:54:56.851, 1541908496851
13, 14.91, 14916.41, 187500.00, 187500.00, -187500.02, -187500.02, -187500.02, -187500.02, 0.000, 0.000, 0.000, 22:54:56.851, 1541908496851
14, -215.67, 14785.97, 187500.00, 187500.00, -187500.02, -187500.02, -187500.02, -187500.02, 0.154, 0.762, 0.608, 22:54:56.851, 1541908496851
15, -325.24, 14540.95, 187500.00, 187500.00, -187500.02, -187500.02, -187500.02, -187500.02, 0.000, 0.000, 0.000, 22:54:56.852, 1541908496852
16, -123.92, 14569.04, 187500.00, 187500.00, -187500.02, -187500.02, -187500.02, -187500.02, 0.000, 0.000, 0.000, 22:54:56.852, 1541908496852
17, 7.91, 14888.65, 187500.00, 187500.00, -187500.02, -187500.02, -187500.02, -187500.02, 0.000, 0.000, 0.000, 22:54:56.852, 1541908496852
18, -183.37, 14814.47, 187500.00, 187500.00, -187500.02, -187500.02, -187500.02, -187500.02, 0.000, 0.000, 0.000, 22:54:56.852, 1541908496852
19, -297.81, 14579.22, 187500.00, 187500.00, -187500.02, -187500.02, -187500.02, -187500.02, 0.000, 0.000, 0.000, 22:54:56.853, 1541908496853
20, -149.51, 14537.15, 187500.00, 187500.00, -187500.02, -187500.02, -187500.02, -187500.02, 0.000, 0.000, 0.000, 22:54:56.853, 1541908496853
21, 57.62, 14874.26, 187500.00, 187500.00, -187500.02, -187500.02, -187500.02, -187500.02, 0.000, 0.000, 0.000, 22:54:56.853, 1541908496853
22, -120.86, 14843.64, 187500.00, 187500.00, -187500.02, -187500.02, -187500.02, -187500.02, 0.000, 0.000, 0.000, 22:54:56.853, 1541908496853
23, -292.29, 14618.02, 187500.00, 187500.00, -187500.02, -187500.02, -187500.02, -187500.02, 0.000, 0.000, 0.000, 22:54:56.853, 1541908496853
24, -196.94, 14502.66, 187500.00, 187500.00, -187500.02, -187500.02, -187500.02, -187500.02, 0.164, 0.770, 0.610, 22:54:56.853, 1541908496853
25, 59.10, 14829.24, 187500.00, 187500.00, -187500.02, -187500.02, -187500.02, -187500.02, 0.000, 0.000, 0.000, 22:54:56.853, 1541908496853
26, -78.81, 14877.90, 187500.00, 187500.00, -187500.02, -187500.02, -187500.02, -187500.02, 0.000, 0.000, 0.000, 22:54:56.853, 1541908496853
27, -266.19, 14655.97, 187500.00, 187500.00, -187500.02, -187500.02, -187500.02, -187500.02, 0.000, 0.000, 0.000, 22:54:56.854, 1541908496854
28, -232.88, 14465.40, 187500.00, 187500.00, -187500.02, -187500.02, -187500.02, -187500.02, 0.000, 0.000, 0.000, 22:54:56.854, 1541908496854
29, 22.93, 14744.08, 187500.00, 187500.00, -187500.02, -187500.02, -187500.02, -187500.02, 0.000, 0.000, 0.000, 22:54:56.854, 1541908496854
30, -73.56, 14868.16, 187500.00, 187500.00, -187500.02, -187500.02, -187500.02, -187500.02, 0.000, 0.000, 0.000, 22:54:56.854, 1541908496854
31, -248.69, 14669.92, 187500.00, 187500.00, -187500.02, -187500.02, -187500.02, -187500.02, 0.000, 0.000, 0.000, 22:54:56.854, 1541908496854
32, -235.12, 14464.62, 187500.00, 187500.00, -187500.02, -187500.02, -187500.02, -187500.02, 0.000, 0.000, 0.000, 22:54:56.854, 1541908496854
33, 15.58, 14674.03, 187500.00, 187500.00, -187500.02, -187500.02, -187500.02, -187500.02, 0.164, 0.766, 0.612, 22:54:56.854, 1541908496854
34, -9.03, 14885.57, 187500.00, 187500.00, -187500.02, -187500.02, -187500.02, -187500.02, 0.000, 0.000, 0.000, 22:54:56.854, 1541908496854
35, -214.22, 14714.67, 187500.00, 187500.00, -187500.02, -187500.02, -187500.02, -187500.02, 0.000, 0.000, 0.000, 22:54:56.854, 1541908496854
36, -262.70, 14476.75, 187500.00, 187500.00, -187500.02, -187500.02, -187500.02, -187500.02, 0.000, 0.000, 0.000, 22:54:56.854, 1541908496854
37, -28.10, 14583.55, 187500.00, 187500.00, -187500.02, -187500.02, -187500.02, -187500.02, 0.000, 0.000, 0.000, 22:54:56.854, 1541908496854
38, 25.17, 14861.18, 187500.00, 187500.00, -187500.02, -187500.02, -187500.02, -187500.02, 0.000, 0.000, 0.000, 22:54:56.855, 1541908496855
39, -186.55, 14737.82, 187500.00, 187500.00, -187500.02, -187500.02, -187500.02, -187500.02, 0.000, 0.000, 0.000, 22:54:56.855, 1541908496855
40, -275.49, 14494.12, 187500.00, 187500.00, -187500.02, -187500.02, -187500.02, -187500.02, 0.000, 0.000, 0.000, 22:54:56.855, 1541908496855
41, -79.15, 14509.90, 187500.00, 187500.00, -187500.02, -187500.02, -187500.02, -187500.02, 0.000, 0.000, 0.000, 22:54:56.855, 1541908496855
42, 40.66, 14825.00, 187500.00, 187500.00, -187500.02, -187500.02, -187500.02, -187500.02, 0.000, 0.000, 0.000, 22:54:56.856, 1541908496856
43, -154.63, 14758.16, 187500.00, 187500.00, -187500.02, -187500.02, -187500.02, -187500.02, 0.162, 0.760, 0.616, 22:54:56.857, 1541908496857
44, -288.34, 14527.76, 187500.00, 187500.00, -187500.02, -187500.02, -187500.02, -187500.02, 0.000, 0.000, 0.000, 22:54:56.858, 1541908496858
45, -150.29, 14451.90, 187500.00, 187500.00, -187500.02, -187500.02, -187500.02, -187500.02, 0.000, 0.000, 0.000, 22:54:56.858, 1541908496858
46, 54.78, 14800.86, 187500.00, 187500.00, -187500.02, -187500.02, -187500.02, -187500.02, 0.000, 0.000, 0.000, 22:54:56.858, 1541908496858
47, -117.77, 14794.53, 187500.00, 187500.00, -187500.02, -187500.02, -187500.02, -187500.02, 0.000, 0.000, 0.000, 22:54:56.858, 1541908496858
48, -280.54, 14557.20, 187500.00, 187500.00, -187500.02, -187500.02, -187500.02, -187500.02, 0.000, 0.000, 0.000, 22:54:56.858, 1541908496858
49, -187.82, 14421.93, 187500.00, 187500.00, -187500.02, -187500.02, -187500.02, -187500.02, 0.000, 0.000, 0.000, 22:54:56.859, 1541908496859
50, 66.74, 14743.25, 187500.00, 187500.00, -187500.02, -187500.02, -187500.02, -187500.02, 0.000, 0.000, 0.000, 22:54:56.859, 1541908496859
51, -90.59, 14797.23, 187500.00, 187500.00, -187500.02, -187500.02, -187500.02, -187500.02, 0.000, 0.000, 0.000, 22:54:56.859, 1541908496859
52, -280.49, 14582.93, 187500.00, 187500.00, -187500.02, -187500.02, -187500.02, -187500.02, 0.000, 0.000, 0.000, 22:54:56.863, 1541908496863
53, -252.40, 14406.24, 187500.00, 187500.00, -187500.02, -187500.02, -187500.02, -187500.02, 0.158, 0.758, 0.614, 22:54:56.864, 1541908496864
54, 10.15, 14679.93, 187500.00, 187500.00, -187500.02, -187500.02, -187500.02, -187500.02, 0.000, 0.000, 0.000, 22:54:56.864, 1541908496864
55, -43.56, 14829.49, 187500.00, 187500.00, -187500.02, -187500.02, -187500.02, -187500.02, 0.000, 0.000, 0.000, 22:54:56.864, 1541908496864
56, -229.53, 14642.22, 187500.00, 187500.00, -187500.02, -187500.02, -187500.02, -187500.02, 0.000, 0.000, 0.000, 22:54:56.864, 1541908496864
57, -262.01, 14431.81, 187500.00, 187500.00, -187500.02, -187500.02, -187500.02, -187500.02, 0.000, 0.000, 0.000, 22:54:56.864, 1541908496864
58, -13.01, 14628.28, 187500.00, 187500.00, -187500.02, -187500.02, -187500.02, -187500.02, 0.000, 0.000, 0.000, 22:54:56.865, 1541908496865
59, -12.81, 14856.11, 187500.00, 187500.00, -187500.02, -187500.02, -187500.02, -187500.02, 0.000, 0.000, 0.000, 22:54:56.865, 1541908496865
60, -201.90, 14701.93, 187500.00, 187500.00, -187500.02, -187500.02, -187500.02, -187500.02, 0.000, 0.000, 0.000, 22:54:56.865, 1541908496865
61, -277.74, 14467.75, 187500.00, 187500.00, -187500.02, -187500.02, -187500.02, -187500.02, 0.000, 0.000, 0.000, 22:54:56.865, 1541908496865
62, -61.67, 14561.71, 187500.00, 187500.00, -187500.02, -187500.02, -187500.02, -187500.02, 0.000, 0.000, 0.000, 22:54:56.865, 1541908496865
63, 13.03, 14844.40, 187500.00, 187500.00, -187500.02, -187500.02, -187500.02, -187500.02, 0.158, 0.762, 0.618, 22:54:56.865, 1541908496865
64, -200.96, 14730.78, 187500.00, 187500.00, -187500.02, -187500.02, -187500.02, -187500.02, 0.000, 0.000, 0.000, 22:54:56.866, 1541908496866
65, -298.17, 14506.53, 187500.00, 187500.00, -187500.02, -187500.02, -187500.02, -187500.02, 0.000, 0.000, 0.000, 22:54:56.866, 1541908496866
66, -107.51, 14507.31, 187500.00, 187500.00, -187500.02, -187500.02, -187500.02, -187500.02, 0.000, 0.000, 0.000, 22:54:56.866, 1541908496866
67, 43.88, 14840.42, 187500.00, 187500.00, -187500.02, -187500.02, -187500.02, -187500.02, 0.000, 0.000, 0.000, 22:54:56.866, 1541908496866
68, -149.56, 14795.63, 187500.00, 187500.00, -187500.02, -187500.02, -187500.02, -187500.02, 0.000, 0.000, 0.000, 22:54:56.866, 1541908496866
69, -287.24, 14554.18, 187500.00, 187500.00, -187500.02, -187500.02, -187500.02, -187500.02, 0.000, 0.000, 0.000, 22:54:56.866, 1541908496866
70, -172.71, 14462.38, 187500.00, 187500.00, -187500.02, -187500.02, -187500.02, -187500.02, 0.000, 0.000, 0.000, 22:54:56.867, 1541908496867
71, 45.06, 14813.26, 187500.00, 187500.00, -187500.02, -187500.02, -187500.02, -187500.02, 0.000, 0.000, 0.000, 22:54:56.867, 1541908496867
72, -117.50, 14834.72, 187500.00, 187500.00, -187500.02, -187500.02, -187500.02, -187500.02, 0.000, 0.000, 0.000, 22:54:56.867, 1541908496867
73, -279.26, 14598.82, 187500.00, 187500.00, -187500.02, -187500.02, -187500.02, -187500.02, 0.162, 0.760, 0.618, 22:54:56.867, 1541908496867
74, -211.25, 14455.07, 187500.00, 187500.00, -187500.02, -187500.02, -187500.02, -187500.02, 0.000, 0.000, 0.000, 22:54:56.868, 1541908496868
75, 34.24, 14772.92, 187500.00, 187500.00, -187500.02, -187500.02, -187500.02, -187500.02, 0.000, 0.000, 0.000, 22:54:56.868, 1541908496868
76, -63.95, 14863.98, 187500.00, 187500.00, -187500.02, -187500.02, -187500.02, -187500.02, 0.000, 0.000, 0.000, 22:54:56.868, 1541908496868
77, -236.08, 14659.97, 187500.00, 187500.00, -187500.02, -187500.02, -187500.02, -187500.02, 0.000, 0.000, 0.000, 22:54:56.868, 1541908496868
78, -247.90, 14467.68, 187500.00, 187500.00, -187500.02, -187500.02, -187500.02, -187500.02, 0.000, 0.000, 0.000, 22:54:56.868, 1541908496868
79, 13.95, 14736.26, 187500.00, 187500.00, -187500.02, -187500.02, -187500.02, -187500.02, 0.000, 0.000, 0.000, 22:54:56.868, 1541908496868
80, -44.28, 14905.86, 187500.00, 187500.00, -187500.02, -187500.02, -187500.02, -187500.02, 0.000, 0.000, 0.000, 22:54:56.868, 1541908496868
81, -257.20, 14709.64, 187500.00, 187500.00, -187500.02, -187500.02, -187500.02, -187500.02, 0.000, 0.000, 0.000, 22:54:56.868, 1541908496868
82, -288.92, 14484.51, 187500.00, 187500.00, -187500.02, -187500.02, -187500.02, -187500.02, 0.158, 0.756, 0.622, 22:54:56.868, 1541908496868
83, -24.59, 14664.64, 187500.00, 187500.00, -187500.02, -187500.02, -187500.02, -187500.02, 0.000, 0.000, 0.000, 22:54:56.868, 1541908496868
84, -15.45, 14903.27, 187500.00, 187500.00, -187500.02, -187500.02, -187500.02, -187500.02, 0.000, 0.000, 0.000, 22:54:56.868, 1541908496868
85, -215.00, 14752.06, 187500.00, 187500.00, -187500.02, -187500.02, -187500.02, -187500.02, 0.000, 0.000, 0.000, 22:54:56.869, 1541908496869
86, -298.55, 14521.08, 187500.00, 187500.00, -187500.02, -187500.02, -187500.02, -187500.02, 0.000, 0.000, 0.000, 22:54:56.869, 1541908496869
87, -76.69, 14605.86, 187500.00, 187500.00, -187500.02, -187500.02, -187500.02, -187500.02, 0.000, 0.000, 0.000, 22:54:56.869, 1541908496869
88, 24.05, 14912.57, 187500.00, 187500.00, -187500.02, -187500.02, -187500.02, -187500.02, 0.000, 0.000, 0.000, 22:54:56.869, 1541908496869
89, -180.62, 14806.15, 187500.00, 187500.00, -187500.02, -187500.02, -187500.02, -187500.02, 0.000, 0.000, 0.000, 22:54:56.869, 1541908496869
90, -305.50, 14575.30, 187500.00, 187500.00, -187500.02, -187500.02, -187500.02, -187500.02, 0.000, 0.000, 0.000, 22:54:57.324, 1541908497324
91, -134.98, 14567.84, 187500.00, 187500.00, -187500.02, -187500.02, -187500.02, -187500.02, 0.000, 0.000, 0.000, 22:54:57.324, 1541908497324
92, 10.68, 14899.38, 187500.00, 187500.00, -187500.02, -187500.02, -187500.02, -187500.02, 0.156, 0.762, 0.622, 22:54:57.324, 1541908497324
93, -173.52, 14852.87, 187500.00, 187500.00, -187500.02, -187500.02, -187500.02, -187500.02, 0.000, 0.000, 0.000, 22:54:57.324, 1541908497324
94, -298.06, 14629.60, 187500.00, 187500.00, -187500.02, -187500.02, -187500.02, -187500.02, 0.000, 0.000, 0.000, 22:54:57.324, 1541908497324
95, -172.11, 14547.65, 187500.00, 187500.00, -187500.02, -187500.02, -187500.02, -187500.02, 0.000, 0.000, 0.000, 22:54:57.324, 1541908497324
96, 53.82, 14880.52, 187500.00, 187500.00, -187500.02, -187500.02, -187500.02, -187500.02, 0.000, 0.000, 0.000, 22:54:57.324, 1541908497324
97, -91.06, 14896.12, 187500.00, 187500.00, -187500.02, -187500.02, -187500.02, -187500.02, 0.000, 0.000, 0.000, 22:54:57.324, 1541908497324
98, -274.48, 14676.47, 187500.00, 187500.00, -187500.02, -187500.02, -187500.02, -187500.02, 0.000, 0.000, 0.000, 22:54:57.324, 1541908497324
99, -231.54, 14515.94, 187500.00, 187500.00, -187500.02, -187500.02, -187500.02, -187500.02, 0.000, 0.000, 0.000, 22:54:57.325, 1541908497325
100, 27.63, 14825.69, 187500.00, 187500.00, -187500.02, -187500.02, -187500.02, -187500.02, 0.000, 0.000, 0.000, 22:54:57.325, 1541908497325
101, -78.68, 14914.96, 187500.00, 187500.00, -187500.02, -187500.02, -187500.02, -187500.02, 0.000, 0.000, 0.000, 22:54:57.325, 1541908497325
102, -273.36, 14711.18, 187500.00, 187500.00, -187500.02, -187500.02, -187500.02, -187500.02, 0.152, 0.760, 0.616, 22:54:57.325, 1541908497325
103, -262.05, 14526.11, 187500.00, 187500.00, -187500.02, -187500.02, -187500.02, -187500.02, 0.000, 0.000, 0.000, 22:54:57.325, 1541908497325
104, 15.33, 14771.22, 187500.00, 187500.00, -187500.02, -187500.02, -187500.02, -187500.02, 0.000, 0.000, 0.000, 22:54:57.325, 1541908497325
105, -31.11, 14942.01, 187500.00, 187500.00, -187500.02, -187500.02, -187500.02, -187500.02, 0.000, 0.000, 0.000, 22:54:57.325, 1541908497325
106, -238.90, 14757.38, 187500.00, 187500.00, -187500.02, -187500.02, -187500.02, -187500.02, 0.000, 0.000, 0.000, 22:54:57.325, 1541908497325
107, -271.33, 14533.13, 187500.00, 187500.00, -187500.02, -187500.02, -187500.02, -187500.02, 0.000, 0.000, 0.000, 22:54:57.325, 1541908497325
108, -19.83, 14697.68, 187500.00, 187500.00, -187500.02, -187500.02, -187500.02, -187500.02, 0.000, 0.000, 0.000, 22:54:57.325, 1541908497325
109, 10.19, 14951.06, 187500.00, 187500.00, -187500.02, -187500.02, -187500.02, -187500.02, 0.000, 0.000, 0.000, 22:54:57.327, 1541908497327
110, -193.66, 14813.64, 187500.00, 187500.00, -187500.02, -187500.02, -187500.02, -187500.02, 0.000, 0.000, 0.000, 22:54:57.327, 1541908497327
111, -267.19, 14573.67, 187500.00, 187500.00, -187500.02, -187500.02, -187500.02, -187500.02, 0.000, 0.000, 0.000, 22:54:57.327, 1541908497327
112, -65.31, 14627.90, 187500.00, 187500.00, -187500.02, -187500.02, -187500.02, -187500.02, 0.152, 0.758, 0.614, 22:54:57.327, 1541908497327
113, 41.04, 14945.14, 187500.00, 187500.00, -187500.02, -187500.02, -187500.02, -187500.02, 0.000, 0.000, 0.000, 22:54:57.327, 1541908497327
114, -165.89, 14851.57, 187500.00, 187500.00, -187500.02, -187500.02, -187500.02, -187500.02, 0.000, 0.000, 0.000, 22:54:57.327, 1541908497327
115, -292.41, 14609.52, 187500.00, 187500.00, -187500.02, -187500.02, -187500.02, -187500.02, 0.000, 0.000, 0.000, 22:54:57.327, 1541908497327
116, -122.13, 14583.75, 187500.00, 187500.00, -187500.02, -187500.02, -187500.02, -187500.02, 0.000, 0.000, 0.000, 22:54:57.327, 1541908497327
117, 38.89, 14919.79, 187500.00, 187500.00, -187500.02, -187500.02, -187500.02, -187500.02, 0.000, 0.000, 0.000, 22:54:57.327, 1541908497327
118, -148.80, 14879.40, 187500.00, 187500.00, -187500.02, -187500.02, -187500.02, -187500.02, 0.000, 0.000, 0.000, 22:54:57.327, 1541908497327
119, -283.24, 14649.80, 187500.00, 187500.00, -187500.02, -187500.02, -187500.02, -187500.02, 0.000, 0.000, 0.000, 22:54:57.328, 1541908497328
120, -171.62, 14555.05, 187500.00, 187500.00, -187500.02, -187500.02, -187500.02, -187500.02, 0.000, 0.000, 0.000, 22:54:57.328, 1541908497328
121, 46.63, 14890.15, 187500.00, 187500.00, -187500.02, -187500.02, -187500.02, -187500.02, 0.154, 0.764, 0.616, 22:54:57.328, 1541908497328
122, -101.41, 14919.97, 187500.00, 187500.00, -187500.02, -187500.02, -187500.02, -187500.02, 0.000, 0.000, 0.000, 22:54:57.328, 1541908497328
123, -276.92, 14700.14, 187500.00, 187500.00, -187500.02, -187500.02, -187500.02, -187500.02, 0.000, 0.000, 0.000, 22:54:57.328, 1541908497328
124, -234.74, 14530.38, 187500.00, 187500.00, -187500.02, -187500.02, -187500.02, -187500.02, 0.000, 0.000, 0.000, 22:54:57.328, 1541908497328
125, 43.38, 14829.73, 187500.00, 187500.00, -187500.02, -187500.02, -187500.02, -187500.02, 0.000, 0.000, 0.000, 22:54:57.328, 1541908497328
126, -56.37, 14944.22, 187500.00, 187500.00, -187500.02, -187500.02, -187500.02, -187500.02, 0.000, 0.000, 0.000, 22:54:57.328, 1541908497328
127, -268.53, 14735.28, 187500.00, 187500.00, -187500.02, -187500.02, -187500.02, -187500.02, 0.000, 0.000, 0.000, 22:54:57.328, 1541908497328
128, -279.13, 14519.11, 187500.00, 187500.00, -187500.02, -187500.02, -187500.02, -187500.02, 0.000, 0.000, 0.000, 22:54:57.328, 1541908497328
129, -19.74, 14755.93, 187500.00, 187500.00, -187500.02, -187500.02, -187500.02, -187500.02, 0.000, 0.000, 0.000, 22:54:57.329, 1541908497329
130, -45.69, 14946.30, 187500.00, 187500.00, -187500.02, -187500.02, -187500.02, -187500.02, 0.000, 0.000, 0.000, 22:54:57.329, 1541908497329
131, -237.80, 14771.44, 187500.00, 187500.00, -187500.02, -187500.02, -187500.02, -187500.02, 0.162, 0.760, 0.620, 22:54:57.329, 1541908497329
132, -285.48, 14547.39, 187500.00, 187500.00, -187500.02, -187500.02, -187500.02, -187500.02, 0.000, 0.000, 0.000, 22:54:57.329, 1541908497329
133, -45.91, 14693.61, 187500.00, 187500.00, -187500.02, -187500.02, -187500.02, -187500.02, 0.000, 0.000, 0.000, 22:54:57.329, 1541908497329
134, -10.26, 14951.33, 187500.00, 187500.00, -187500.02, -187500.02, -187500.02, -187500.02, 0.000, 0.000, 0.000, 22:54:57.329, 1541908497329
135, -212.10, 14815.67, 187500.00, 187500.00, -187500.02, -187500.02, -187500.02, -187500.02, 0.000, 0.000, 0.000, 22:54:57.329, 1541908497329
136, -301.48, 14567.30, 187500.00, 187500.00, -187500.02, -187500.02, -187500.02, -187500.02, 0.000, 0.000, 0.000, 22:54:57.329, 1541908497329
137, -100.49, 14613.37, 187500.00, 187500.00, -187500.02, -187500.02, -187500.02, -187500.02, 0.000, 0.000, 0.000, 22:54:57.330, 1541908497330
138, 22.58, 14941.98, 187500.00, 187500.00, -187500.02, -187500.02, -187500.02, -187500.02, 0.000, 0.000, 0.000, 22:54:57.330, 1541908497330
139, -174.25, 14851.15, 187500.00, 187500.00, -187500.02, -187500.02, -187500.02, -187500.02, 0.000, 0.000, 0.000, 22:54:57.330, 1541908497330
140, -287.80, 14610.75, 187500.00, 187500.00, -187500.02, -187500.02, -187500.02, -187500.02, 0.000, 0.000, 0.000, 22:54:57.330, 1541908497330
141, -139.50, 14579.06, 187500.00, 187500.00, -187500.02, -187500.02, -187500.02, -187500.02, 0.164, 0.762, 0.614, 22:54:57.330, 1541908497330
142, 42.76, 14919.32, 187500.00, 187500.00, -187500.02, -187500.02, -187500.02, -187500.02, 0.000, 0.000, 0.000, 22:54:57.330, 1541908497330
143, -141.91, 14886.73, 187500.00, 187500.00, -187500.02, -187500.02, -187500.02, -187500.02, 0.000, 0.000, 0.000, 22:54:57.331, 1541908497331
144, -304.48, 14657.33, 187500.00, 187500.00, -187500.02, -187500.02, -187500.02, -187500.02, 0.000, 0.000, 0.000, 22:54:57.331, 1541908497331
145, -213.44, 14538.69, 187500.00, 187500.00, -187500.02, -187500.02, -187500.02, -187500.02, 0.000, 0.000, 0.000, 22:54:57.331, 1541908497331
146, 39.99, 14877.37, 187500.00, 187500.00, -187500.02, -187500.02, -187500.02, -187500.02, 0.000, 0.000, 0.000, 22:54:57.331, 1541908497331
147, -104.00, 14916.46, 187500.00, 187500.00, -187500.02, -187500.02, -187500.02, -187500.02, 0.000, 0.000, 0.000, 22:54:57.331, 1541908497331
148, -274.79, 14702.78, 187500.00, 187500.00, -187500.02, -187500.02, -187500.02, -187500.02, 0.000, 0.000, 0.000, 22:54:57.331, 1541908497331
149, -249.22, 14527.92, 187500.00, 187500.00, -187500.02, -187500.02, -187500.02, -187500.02, 0.000, 0.000, 0.000, 22:54:57.331, 1541908497331
150, 17.93, 14816.03, 187500.00, 187500.00, -187500.02, -187500.02, -187500.02, -187500.02, 0.000, 0.000, 0.000, 22:54:57.332, 1541908497332
151, -48.82, 14943.12, 187500.00, 187500.00, -187500.02, -187500.02, -187500.02, -187500.02, 0.168, 0.766, 0.612, 22:54:57.332, 1541908497332
152, -238.47, 14756.15, 187500.00, 187500.00, -187500.02, -187500.02, -187500.02, -187500.02, 0.000, 0.000, 0.000, 22:54:57.332, 1541908497332
153, -258.03, 14550.23, 187500.00, 187500.00, -187500.02, -187500.02, -187500.02, -187500.02, 0.000, 0.000, 0.000, 22:54:57.332, 1541908497332
154, 11.24, 14759.21, 187500.00, 187500.00, -187500.02, -187500.02, -187500.02, -187500.02, 0.000, 0.000, 0.000, 22:54:57.332, 1541908497332
155, -25.64, 14951.44, 187500.00, 187500.00, -187500.02, -187500.02, -187500.02, -187500.02, 0.000, 0.000, 0.000, 22:54:57.332, 1541908497332
156, -225.95, 14786.95, 187500.00, 187500.00, -187500.02, -187500.02, -187500.02, -187500.02, 0.000, 0.000, 0.000, 22:54:57.332, 1541908497332
157, -269.61, 14568.93, 187500.00, 187500.00, -187500.02, -187500.02, -187500.02, -187500.02, 0.000, 0.000, 0.000, 22:54:57.332, 1541908497332
158, -35.09, 14697.41, 187500.00, 187500.00, -187500.02, -187500.02, -187500.02, -187500.02, 0.000, 0.000, 0.000, 22:54:57.332, 1541908497332
159, 5.61, 14948.42, 187500.00, 187500.00, -187500.02, -187500.02, -187500.02, -187500.02, 0.000, 0.000, 0.000, 22:54:57.332, 1541908497332
160, -192.72, 14823.23, 187500.00, 187500.00, -187500.02, -187500.02, -187500.02, -187500.02, 0.000, 0.000, 0.000, 22:54:57.332, 1541908497332
161, -295.24, 14585.21, 187500.00, 187500.00, -187500.02, -187500.02, -187500.02, -187500.02, 0.160, 0.770, 0.608, 22:54:57.333, 1541908497333
162, -109.39, 14611.67, 187500.00, 187500.00, -187500.02, -187500.02, -187500.02, -187500.02, 0.000, 0.000, 0.000, 22:54:57.333, 1541908497333
163, 28.07, 14947.06, 187500.00, 187500.00, -187500.02, -187500.02, -187500.02, -187500.02, 0.000, 0.000, 0.000, 22:54:57.333, 1541908497333
164, -173.27, 14862.75, 187500.00, 187500.00, -187500.02, -187500.02, -187500.02, -187500.02, 0.000, 0.000, 0.000, 22:54:57.333, 1541908497333
165, -299.56, 14615.67, 187500.00, 187500.00, -187500.02, -187500.02, -187500.02, -187500.02, 0.000, 0.000, 0.000, 22:54:57.333, 1541908497333
166, -150.74, 14567.37, 187500.00, 187500.00, -187500.02, -187500.02, -187500.02, -187500.02, 0.000, 0.000, 0.000, 22:54:57.333, 1541908497333
167, 54.29, 14908.70, 187500.00, 187500.00, -187500.02, -187500.02, -187500.02, -187500.02, 0.000, 0.000, 0.000, 22:54:57.333, 1541908497333
168, -112.59, 14892.14, 187500.00, 187500.00, -187500.02, -187500.02, -187500.02, -187500.02, 0.000, 0.000, 0.000, 22:54:57.333, 1541908497333
169, -259.37, 14667.19, 187500.00, 187500.00, -187500.02, -187500.02, -187500.02, -187500.02, 0.000, 0.000, 0.000, 22:54:57.333, 1541908497333
170, -194.46, 14527.90, 187500.00, 187500.00, -187500.02, -187500.02, -187500.02, -187500.02, 0.156, 0.770, 0.618, 22:54:57.333, 1541908497333
171, 12.54, 14845.16, 187500.00, 187500.00, -187500.02, -187500.02, -187500.02, -187500.02, 0.000, 0.000, 0.000, 22:54:57.333, 1541908497333
172, -124.59, 14895.25, 187500.00, 187500.00, -187500.02, -187500.02, -187500.02, -187500.02, 0.000, 0.000, 0.000, 22:54:57.333, 1541908497333
173, -294.42, 14674.79, 187500.00, 187500.00, -187500.02, -187500.02, -187500.02, -187500.02, 0.000, 0.000, 0.000, 22:54:57.334, 1541908497334
174, -248.35, 14504.69, 187500.00, 187500.00, -187500.02, -187500.02, -187500.02, -187500.02, 0.000, 0.000, 0.000, 22:54:57.334, 1541908497334
175, 21.21, 14793.41, 187500.00, 187500.00, -187500.02, -187500.02, -187500.02, -187500.02, 0.000, 0.000, 0.000, 22:54:57.334, 1541908497334
176, -59.12, 14921.82, 187500.00, 187500.00, -187500.02, -187500.02, -187500.02, -187500.02, 0.000, 0.000, 0.000, 22:54:57.334, 1541908497334
177, -249.89, 14720.93, 187500.00, 187500.00, -187500.02, -187500.02, -187500.02, -187500.02, 0.000, 0.000, 0.000, 22:54:57.334, 1541908497334
178, -259.41, 14517.30, 187500.00, 187500.00, -187500.02, -187500.02, -187500.02, -187500.02, 0.000, 0.000, 0.000, 22:54:57.334, 1541908497334
179, -9.90, 14709.21, 187500.00, 187500.00, -187500.02, -187500.02, -187500.02, -187500.02, 0.000, 0.000, 0.000, 22:54:57.334, 1541908497334
180, -17.79, 14930.47, 187500.00, 187500.00, -187500.02, -187500.02, -187500.02, -187500.02, 0.162, 0.762, 0.618, 22:54:57.334, 1541908497334
181, -223.09, 14772.76, 187500.00, 187500.00, -187500.02, -187500.02, -187500.02, -187500.02, 0.000, 0.000, 0.000, 22:54:57.334, 1541908497334
182, -306.82, 14520.90, 187500.00, 187500.00, -187500.02, -187500.02, -187500.02, -187500.02, 0.000, 0.000, 0.000, 22:54:57.337, 1541908497337
183, -69.69, 14628.05, 187500.00, 187500.00, -187500.02, -187500.02, -187500.02, -187500.02, 0.000, 0.000, 0.000, 22:54:57.337, 1541908497337
184, 14.06, 14927.59, 187500.00, 187500.00, -187500.02, -187500.02, -187500.02, -187500.02, 0.000, 0.000, 0.000, 22:54:57.337, 1541908497337
185, -187.04, 14803.74, 187500.00, 187500.00, -187500.02, -187500.02, -187500.02, -187500.02, 0.000, 0.000, 0.000, 22:54:57.337, 1541908497337
186, -302.22, 14543.65, 187500.00, 187500.00, -187500.02, -187500.02, -187500.02, -187500.02, 0.000, 0.000, 0.000, 22:54:57.338, 1541908497338
187, -110.78, 14560.84, 187500.00, 187500.00, -187500.02, -187500.02, -187500.02, -187500.02, 0.000, 0.000, 0.000, 22:54:57.338, 1541908497338
188, 26.82, 14904.88, 187500.00, 187500.00, -187500.02, -187500.02, -187500.02, -187500.02, 0.000, 0.000, 0.000, 22:54:57.338, 1541908497338
189, -184.45, 14825.53, 187500.00, 187500.00, -187500.02, -187500.02, -187500.02, -187500.02, 0.000, 0.000, 0.000, 22:54:57.338, 1541908497338
190, -292.27, 14589.81, 187500.00, 187500.00, -187500.02, -187500.02, -187500.02, -187500.02, 0.170, 0.762, 0.616, 22:54:57.338, 1541908497338
191, -151.75, 14534.27, 187500.00, 187500.00, -187500.02, -187500.02, -187500.02, -187500.02, 0.000, 0.000, 0.000, 22:54:57.338, 1541908497338
192, 59.72, 14883.76, 187500.00, 187500.00, -187500.02, -187500.02, -187500.02, -187500.02, 0.000, 0.000, 0.000, 22:54:57.338, 1541908497338
193, -111.89, 14872.47, 187500.00, 187500.00, -187500.02, -187500.02, -187500.02, -187500.02, 0.000, 0.000, 0.000, 22:54:57.339, 1541908497339
194, -268.65, 14647.12, 187500.00, 187500.00, -187500.02, -187500.02, -187500.02, -187500.02, 0.000, 0.000, 0.000, 22:54:57.339, 1541908497339
195, -181.18, 14513.01, 187500.00, 187500.00, -187500.02, -187500.02, -187500.02, -187500.02, 0.000, 0.000, 0.000, 22:54:57.339, 1541908497339
196, 67.82, 14847.06, 187500.00, 187500.00, -187500.02, -187500.02, -187500.02, -187500.02, 0.000, 0.000, 0.000, 22:54:57.339, 1541908497339
197, -74.34, 14915.01, 187500.00, 187500.00, -187500.02, -187500.02, -187500.02, -187500.02, 0.000, 0.000, 0.000, 22:54:57.340, 1541908497340
198, -261.09, 14692.49, 187500.00, 187500.00, -187500.02, -187500.02, -187500.02, -187500.02, 0.000, 0.000, 0.000, 22:54:57.340, 1541908497340
199, -241.40, 14500.38, 187500.00, 187500.00, -187500.02, -187500.02, -187500.02, -187500.02, 0.000, 0.000, 0.000, 22:54:57.341, 1541908497341
200, 18.86, 14770.84, 187500.00, 187500.00, -187500.02, -187500.02, -187500.02, -187500.02, 0.170, 0.762, 0.612, 22:54:57.341, 1541908497341
201, -67.41, 14908.70, 187500.00, 187500.00, -187500.02, -187500.02, -187500.02, -187500.02, 0.000, 0.000, 0.000, 22:54:57.341, 1541908497341
202, -269.36, 14708.25, 187500.00, 187500.00, -187500.02, -187500.02, -187500.02, -187500.02, 0.000, 0.000, 0.000, 22:54:57.341, 1541908497341
203, -288.87, 14486.39, 187500.00, 187500.00, -187500.02, -187500.02, -187500.02, -187500.02, 0.000, 0.000, 0.000, 22:54:57.341, 1541908497341
204, -18.48, 14692.00, 187500.00, 187500.00, -187500.02, -187500.02, -187500.02, -187500.02, 0.000, 0.000, 0.000, 22:54:57.342, 1541908497342
205, -16.76, 14924.71, 187500.00, 187500.00, -187500.02, -187500.02, -187500.02, -187500.02, 0.000, 0.000, 0.000, 22:54:57.342, 1541908497342
206, -220.77, 14753.31, 187500.00, 187500.00, -187500.02, -187500.02, -187500.02, -187500.02, 0.000, 0.000, 0.000, 22:54:57.342, 1541908497342
207, -276.47, 14520.97, 187500.00, 187500.00, -187500.02, -187500.02, -187500.02, -187500.02, 0.000, 0.000, 0.000, 22:54:57.342, 1541908497342
208, -46.80, 14618.26, 187500.00, 187500.00, -187500.02, -187500.02, -187500.02, -187500.02, 0.000, 0.000, 0.000, 22:54:57.342, 1541908497342
209, 8.52, 14904.34, 187500.00, 187500.00, -187500.02, -187500.02, -187500.02, -187500.02, 0.170, 0.764, 0.614, 22:54:57.342, 1541908497342
210, -207.67, 14801.79, 187500.00, 187500.00, -187500.02, -187500.02, -187500.02, -187500.02, 0.000, 0.000, 0.000, 22:54:57.804, 1541908497804
211, -313.66, 14557.15, 187500.00, 187500.00, -187500.02, -187500.02, -187500.02, -187500.02, 0.000, 0.000, 0.000, 22:54:57.806, 1541908497806
212, -119.07, 14561.09, 187500.00, 187500.00, -187500.02, -187500.02, -187500.02, -187500.02, 0.000, 0.000, 0.000, 22:54:57.806, 1541908497806
213, 37.42, 14902.38, 187500.00, 187500.00, -187500.02, -187500.02, -187500.02, -187500.02, 0.000, 0.000, 0.000, 22:54:57.806, 1541908497806
214, -169.63, 14823.94, 187500.00, 187500.00, -187500.02, -187500.02, -187500.02, -187500.02, 0.000, 0.000, 0.000, 22:54:57.806, 1541908497806
215, -304.83, 14578.68, 187500.00, 187500.00, -187500.02, -187500.02, -187500.02, -187500.02, 0.000, 0.000, 0.000, 22:54:57.807, 1541908497807
216, -171.08, 14506.42, 187500.00, 187500.00, -187500.02, -187500.02, -187500.02, -187500.02, 0.000, 0.000, 0.000, 22:54:57.807, 1541908497807
217, 54.47, 14860.56, 187500.00, 187500.00, -187500.02, -187500.02, -187500.02, -187500.02, 0.000, 0.000, 0.000, 22:54:57.807, 1541908497807
218, -112.68, 14861.83, 187500.00, 187500.00, -187500.02, -187500.02, -187500.02, -187500.02, 0.000, 0.000, 0.000, 22:54:57.807, 1541908497807
219, -277.92, 14634.33, 187500.00, 187500.00, -187500.02, -187500.02, -187500.02, -187500.02, 0.168, 0.764, 0.612, 22:54:57.807, 1541908497807
220, -218.73, 14492.27, 187500.00, 187500.00, -187500.02, -187500.02, -187500.02, -187500.02, 0.000, 0.000, 0.000, 22:54:57.808, 1541908497808
221, 23.56, 14808.57, 187500.00, 187500.00, -187500.02, -187500.02, -187500.02, -187500.02, 0.000, 0.000, 0.000, 22:54:57.808, 1541908497808
222, -100.11, 14885.01, 187500.00, 187500.00, -187500.02, -187500.02, -187500.02, -187500.02, 0.000, 0.000, 0.000, 22:54:57.808, 1541908497808
223, -272.18, 14665.90, 187500.00, 187500.00, -187500.02, -187500.02, -187500.02, -187500.02, 0.000, 0.000, 0.000, 22:54:57.808, 1541908497808
224, -252.53, 14481.27, 187500.00, 187500.00, -187500.02, -187500.02, -187500.02, -187500.02, 0.000, 0.000, 0.000, 22:54:57.808, 1541908497808
225, 12.92, 14762.72, 187500.00, 187500.00, -187500.02, -187500.02, -187500.02, -187500.02, 0.000, 0.000, 0.000, 22:54:57.808, 1541908497808
226, -45.49, 14916.57, 187500.00, 187500.00, -187500.02, -187500.02, -187500.02, -187500.02, 0.000, 0.000, 0.000, 22:54:57.808, 1541908497808
227, -238.18, 14720.39, 187500.00, 187500.00, -187500.02, -187500.02, -187500.02, -187500.02, 0.000, 0.000, 0.000, 22:54:57.808, 1541908497808
228, -259.37, 14504.63, 187500.00, 187500.00, -187500.02, -187500.02, -187500.02, -187500.02, 0.000, 0.000, 0.000, 22:54:57.808, 1541908497808
229, -8.25, 14694.82, 187500.00, 187500.00, -187500.02, -187500.02, -187500.02, -187500.02, 0.176, 0.764, 0.608, 22:54:57.808, 1541908497808
230, -0.94, 14932.40, 187500.00, 187500.00, -187500.02, -187500.02, -187500.02, -187500.02, 0.000, 0.000, 0.000, 22:54:57.808, 1541908497808
231, -211.27, 14773.12, 187500.00, 187500.00, -187500.02, -187500.02, -187500.02, -187500.02, 0.000, 0.000, 0.000, 22:54:57.808, 1541908497808
232, -287.38, 14532.43, 187500.00, 187500.00, -187500.02, -187500.02, -187500.02, -187500.02, 0.000, 0.000, 0.000, 22:54:57.808, 1541908497808
233, -58.54, 14625.26, 187500.00, 187500.00, -187500.02, -187500.02, -187500.02, -187500.02, 0.000, 0.000, 0.000, 22:54:57.808, 1541908497808
234, 32.72, 14926.52, 187500.00, 187500.00, -187500.02, -187500.02, -187500.02, -187500.02, 0.000, 0.000, 0.000, 22:54:57.808, 1541908497808
235, -171.77, 14806.78, 187500.00, 187500.00, -187500.02, -187500.02, -187500.02, -187500.02, 0.000, 0.000, 0.000, 22:54:57.809, 1541908497809
236, -285.90, 14574.21, 187500.00, 187500.00, -187500.02, -187500.02, -187500.02, -187500.02, 0.000, 0.000, 0.000, 22:54:57.809, 1541908497809
237, -107.76, 14570.57, 187500.00, 187500.00, -187500.02, -187500.02, -187500.02, -187500.02, 0.000, 0.000, 0.000, 22:54:57.809, 1541908497809
238, 49.53, 14901.30, 187500.00, 187500.00, -187500.02, -187500.02, -187500.02, -187500.02, 0.000, 0.000, 0.000, 22:54:57.809, 1541908497809
239, -147.72, 14843.14, 187500.00, 187500.00, -187500.02, -187500.02, -187500.02, -187500.02, 0.180, 0.768, 0.614, 22:54:57.809, 1541908497809
240, -280.18, 14611.04, 187500.00, 187500.00, -187500.02, -187500.02, -187500.02, -187500.02, 0.000, 0.000, 0.000, 22:54:57.809, 1541908497809
241, -156.93, 14519.22, 187500.00, 187500.00, -187500.02, -187500.02, -187500.02, -187500.02, 0.000, 0.000, 0.000, 22:54:57.809, 1541908497809
242, 65.69, 14854.28, 187500.00, 187500.00, -187500.02, -187500.02, -187500.02, -187500.02, 0.000, 0.000, 0.000, 22:54:57.809, 1541908497809
243, -106.84, 14861.90, 187500.00, 187500.00, -187500.02, -187500.02, -187500.02, -187500.02, 0.000, 0.000, 0.000, 22:54:57.809, 1541908497809
244, -274.35, 14630.47, 187500.00, 187500.00, -187500.02, -187500.02, -187500.02, -187500.02, 0.000, 0.000, 0.000, 22:54:57.809, 1541908497809
245, -205.99, 14469.04, 187500.00, 187500.00, -187500.02, -187500.02, -187500.02, -187500.02, 0.000, 0.000, 0.000, 22:54:57.809, 1541908497809
246, 53.04, 14785.41, 187500.00, 187500.00, -187500.02, -187500.02, -187500.02, -187500.02, 0.000, 0.000, 0.000, 22:54:57.809, 1541908497809
247, -53.78, 14872.92, 187500.00, 187500.00, -187500.02, -187500.02, -187500.02, -187500.02, 0.000, 0.000, 0.000, 22:54:57.809, 1541908497809
248, -244.68, 14655.03, 187500.00, 187500.00, -187500.02, -187500.02, -187500.02, -187500.02, 0.000, 0.000, 0.000, 22:54:57.809, 1541908497809
249, -240.04, 14455.19, 187500.00, 187500.00, -187500.02, -187500.02, -187500.02, -187500.02, 0.182, 0.756, 0.612, 22:54:57.809, 1541908497809
250, 32.63, 14714.89, 187500.00, 187500.00, -187500.02, -187500.02, -187500.02, -187500.02, 0.000, 0.000, 0.000, 22:54:57.810, 1541908497810
251, -10.30, 14878.88, 187500.00, 187500.00, -187500.02, -187500.02, -187500.02, -187500.02, 0.000, 0.000, 0.000, 22:54:57.810, 1541908497810
252, -212.43, 14684.78, 187500.00, 187500.00, -187500.02, -187500.02, -187500.02, -187500.02, 0.000, 0.000, 0.000, 22:54:57.810, 1541908497810
253, -263.93, 14452.84, 187500.00, 187500.00, -187500.02, -187500.02, -187500.02, -187500.02, 0.000, 0.000, 0.000, 22:54:57.810, 1541908497810
254, -14.22, 14619.02, 187500.00, 187500.00, -187500.02, -187500.02, -187500.02, -187500.02, 0.000, 0.000, 0.000, 22:54:57.810, 1541908497810
255, 24.99, 14866.68, 187500.00, 187500.00, -187500.02, -187500.02, -187500.02, -187500.02, 0.000, 0.000, 0.000, 22:54:57.810, 1541908497810
0, -199.09, 14699.76, 187500.00, 187500.00, -187500.02, -187500.02, -187500.02, -187500.02, 0.000, 0.000, 0.000, 22:54:57.810, 1541908497810
1, -283.73, 14456.73, 187500.00, 187500.00, -187500.02, -187500.02, -187500.02, -187500.02, 0.000, 0.000, 0.000, 22:54:57.810, 1541908497810
2, -67.28, 14525.04, 187500.00, 187500.00, -187500.02, -187500.02, -187500.02, -187500.02, 0.168, 0.760, 0.616, 22:54:57.810, 1541908497810
3, 34.13, 14829.67, 187500.00, 187500.00, -187500.02, -187500.02, -187500.02, -187500.02, 0.000, 0.000, 0.000, 22:54:57.810, 1541908497810
4, -166.79, 14727.85, 187500.00, 187500.00, -187500.02, -187500.02, -187500.02, -187500.02, 0.000, 0.000, 0.000, 22:54:57.810, 1541908497810
5, -279.96, 14499.55, 187500.00, 187500.00, -187500.02, -187500.02, -187500.02, -187500.02, 0.000, 0.000, 0.000, 22:54:57.810, 1541908497810
6, -102.08, 14485.67, 187500.00, 187500.00, -187500.02, -187500.02, -187500.02, -187500.02, 0.000, 0.000, 0.000, 22:54:57.810, 1541908497810
7, 66.72, 14820.08, 187500.00, 187500.00, -187500.02, -187500.02, -187500.02, -187500.02, 0.000, 0.000, 0.000, 22:54:57.810, 1541908497810
8, -120.32, 14768.85, 187500.00, 187500.00, -187500.02, -187500.02, -187500.02, -187500.02, 0.000, 0.000, 0.000, 22:54:57.810, 1541908497810
9, -263.01, 14528.10, 187500.00, 187500.00, -187500.02, -187500.02, -187500.02, -187500.02, 0.000, 0.000, 0.000, 22:54:57.811, 1541908497811
10, -159.23, 14429.53, 187500.00, 187500.00, -187500.02, -187500.02, -187500.02, -187500.02, 0.000, 0.000, 0.000, 22:54:57.811, 1541908497811
11, 69.72, 14765.56, 187500.00, 187500.00, -187500.02, -187500.02, -187500.02, -187500.02, 0.000, 0.000, 0.000, 22:54:57.811, 1541908497811
12, -95.08, 14793.39, 187500.00, 187500.00, -187500.02, -187500.02, -187500.02, -187500.02, 0.172, 0.756, 0.628, 22:54:57.811, 1541908497811
13, -256.64, 14578.48, 187500.00, 187500.00, -187500.02, -187500.02, -187500.02, -187500.02, 0.000, 0.000, 0.000, 22:54:57.811, 1541908497811
14, -194.06, 14424.21, 187500.00, 187500.00, -187500.02, -187500.02, -187500.02, -187500.02, 0.000, 0.000, 0.000, 22:54:57.811, 1541908497811
15, 62.54, 14718.98, 187500.00, 187500.00, -187500.02, -187500.02, -187500.02, -187500.02, 0.000, 0.000, 0.000, 22:54:57.811, 1541908497811
16, -38.98, 14812.81, 187500.00, 187500.00, -187500.02, -187500.02, -187500.02, -187500.02, 0.000, 0.000, 0.000, 22:54:57.811, 1541908497811
17, -232.88, 14602.98, 187500.00, 187500.00, -187500.02, -187500.02, -187500.02, -187500.02, 0.000, 0.000, 0.000, 22:54:57.811, 1541908497811
18, -247.55, 14402.52, 187500.00, 187500.00, -187500.02, -187500.02, -187500.02, -187500.02, 0.000, 0.000, 0.000, 22:54:57.811, 1541908497811
19, 31.40, 14654.23, 187500.00, 187500.00, -187500.02, -187500.02, -187500.02, -187500.02, 0.000, 0.000, 0.000, 22:54:57.811, 1541908497811
20, -0.22, 14836.77, 187500.00, 187500.00, -187500.02, -187500.02, -187500.02, -187500.02, 0.000, 0.000, 0.000, 22:54:57.811, 1541908497811
21, -193.48, 14655.28, 187500.00, 187500.00, -187500.02, -187500.02, -187500.02, -187500.02, 0.000, 0.000, 0.000, 22:54:57.811, 1541908497811
22, -228.75, 14437.80, 187500.00, 187500.00, -187500.02, -187500.02, -187500.02, -187500.02, 0.152, 0.758, 0.632, 22:54:57.812, 1541908497812
23, 19.65, 14607.11, 187500.00, 187500.00, -187500.02, -187500.02, -187500.02, -187500.02, 0.000, 0.000, 0.000, 22:54:57.812, 1541908497812
24, 56.68, 14869.34, 187500.00, 187500.00, -187500.02, -187500.02, -187500.02, -187500.02, 0.000, 0.000, 0.000, 22:54:57.812, 1541908497812
25, -143.92, 14735.52, 187500.00, 187500.00, -187500.02, -187500.02, -187500.02, -187500.02, 0.000, 0.000, 0.000, 22:54:57.812, 1541908497812
26, -221.39, 14505.30, 187500.00, 187500.00, -187500.02, -187500.02, -187500.02, -187500.02, 0.000, 0.000, 0.000, 22:54:57.812, 1541908497812
27, -11.00, 14563.14, 187500.00, 187500.00, -187500.02, -187500.02, -187500.02, -187500.02, 0.000, 0.000, 0.000, 22:54:57.812, 1541908497812
28, 105.68, 14875.22, 187500.00, 187500.00, -187500.02, -187500.02, -187500.02, -187500.02, 0.000, 0.000, 0.000, 22:54:57.812, 1541908497812
29, -93.92, 14783.93, 187500.00, 187500.00, -187500.02, -187500.02, -187500.02, -187500.02, 0.000, 0.000, 0.000, 22:54:57.812, 1541908497812
30, -215.02, 14554.65, 187500.00, 187500.00, -187500.02, -187500.02, -187500.02, -187500.02, 0.000, 0.000, 0.000, 22:54:57.812, 1541908497812
31, -51.23, 14536.64, 187500.00, 187500.00, -187500.02, -187500.02, -187500.02, -187500.02, 0.000, 0.000, 0.000, 22:54:57.812, 1541908497812
32, 137.42, 14881.61, 187500.00, 187500.00, -187500.02, -187500.02, -187500.02, -187500.02, 0.140, 0.742, 0.632, 22:54:57.812, 1541908497812
33, -53.85, 14851.19, 187500.00, 187500.00, -187500.02, -187500.02, -187500.02, -187500.02, 0.000, 0.000, 0.000, 22:54:57.812, 1541908497812
34, -218.96, 14625.93, 187500.00, 187500.00, -187500.02, -187500.02, -187500.02, -187500.02, 0.000, 0.000, 0.000, 22:54:57.812, 1541908497812
35, -128.14, 14537.15, 187500.00, 187500.00, -187500.02, -187500.02, -187500.02, -187500.02, 0.000, 0.000, 0.000, 22:54:57.812, 1541908497812
36, 108.00, 14880.92, 187500.00, 187500.00, -187500.02, -187500.02, -187500.02, -187500.02, 0.000, 0.000, 0.000, 22:54:57.812, 1541908497812
37, -24.39, 14915.86, 187500.00, 187500.00, -187500.02, -187500.02, -187500.02, -187500.02, 0.000, 0.000, 0.000, 22:54:57.812, 1541908497812
38, -206.13, 14692.36, 187500.00, 187500.00, -187500.02, -187500.02, -187500.02, -187500.02, 0.000, 0.000, 0.000, 22:54:57.813, 1541908497813
39, -183.17, 14533.04, 187500.00, 187500.00, -187500.02, -187500.02, -187500.02, -187500.02, 0.000, 0.000, 0.000, 22:54:57.813, 1541908497813
40, 86.39, 14834.83, 187500.00, 187500.00, -187500.02, -187500.02, -187500.02, -187500.02, 0.000, 0.000, 0.000, 22:54:57.813, 1541908497813
41, 18.69, 14953.94, 187500.00, 187500.00, -187500.02, -187500.02, -187500.02, -187500.02, 0.000, 0.000, 0.000, 22:54:57.813, 1541908497813
42, -167.12, 14752.96, 187500.00, 187500.00, -187500.02, -187500.02, -187500.02, -187500.02, 0.130, 0.722, 0.618, 22:54:57.813, 1541908497813
43, -191.00, 14559.39, 187500.00, 187500.00, -187500.02, -187500.02, -187500.02, -187500.02, 0.000, 0.000, 0.000, 22:54:57.813, 1541908497813
44, 74.07, 14794.89, 187500.00, 187500.00, -187500.02, -187500.02, -187500.02, -187500.02, 0.000, 0.000, 0.000, 22:54:57.813, 1541908497813
45, 55.28, 14990.11, 187500.00, 187500.00, -187500.02, -187500.02, -187500.02, -187500.02, 0.000, 0.000, 0.000, 22:54:57.813, 1541908497813
46, -139.01, 14821.08, 187500.00, 187500.00, -187500.02, -187500.02, -187500.02, -187500.02, 0.000, 0.000, 0.000, 22:54:57.814, 1541908497814
47, -194.88, 14602.53, 187500.00, 187500.00, -187500.02, -187500.02, -187500.02, -187500.02, 0.000, 0.000, 0.000, 22:54:57.814, 1541908497814
48, 39.20, 14751.37, 187500.00, 187500.00, -187500.02, -187500.02, -187500.02, -187500.02, 0.000, 0.000, 0.000, 22:54:57.814, 1541908497814
49, 91.82, 15026.03, 187500.00, 187500.00, -187500.02, -187500.02, -187500.02, -187500.02, 0.000, 0.000, 0.000, 22:54:57.814, 1541908497814
50, -115.42, 14891.98, 187500.00, 187500.00, -187500.02, -187500.02, -187500.02, -187500.02, 0.000, 0.000, 0.000, 22:54:57.815, 1541908497815
51, -207.47, 14653.83, 187500.00, 187500.00, -187500.02, -187500.02, -187500.02, -187500.02, 0.132, 0.720, 0.604, 22:54:57.815, 1541908497815
52, -5.63, 14700.92, 187500.00, 187500.00, -187500.02, -187500.02, -187500.02, -187500.02, 0.000, 0.000, 0.000, 22:54:57.815, 1541908497815
53, 124.45, 15028.40, 187500.00, 187500.00, -187500.02, -187500.02, -187500.02, -187500.02, 0.000, 0.000, 0.000, 22:54:57.815, 1541908497815
54, -71.37, 14946.41, 187500.00, 187500.00, -187500.02, -187500.02, -187500.02, -187500.02, 0.000, 0.000, 0.000, 22:54:57.815, 1541908497815
55, -186.77, 14727.47, 187500.00, 187500.00, -187500.02, -187500.02, -187500.02, -187500.02, 0.000, 0.000, 0.000, 22:54:57.815, 1541908497815
56, -37.66, 14688.09, 187500.00, 187500.00, -187500.02, -187500.02, -187500.02, -187500.02, 0.000, 0.000, 0.000, 22:54:57.815, 1541908497815
57, 153.38, 15021.36, 187500.00, 187500.00, -187500.02, -187500.02, -187500.02, -187500.02, 0.000, 0.000, 0.000, 22:54:57.815, 1541908497815
58, -26.02, 15001.55, 187500.00, 187500.00, -187500.02, -187500.02, -187500.02, -187500.02, 0.000, 0.000, 0.000, 22:54:57.816, 1541908497816
59, -158.99, 14807.78, 187500.00, 187500.00, -187500.02, -187500.02, -187500.02, -187500.02, 0.000, 0.000, 0.000, 22:54:57.816, 1541908497816
60, -79.75, 14708.97, 187500.00, 187500.00, -187500.02, -187500.02, -187500.02, -187500.02, 0.000, 0.000, 0.000, 22:54:57.816, 1541908497816
61, 125.64, 14980.54, 187500.00, 187500.00, -187500.02, -187500.02, -187500.02, -187500.02, 0.136, 0.740, 0.592, 22:54:57.816, 1541908497816
62, -0.04, 15021.13, 187500.00, 187500.00, -187500.02, -187500.02, -187500.02, -187500.02, 0.000, 0.000, 0.000, 22:54:57.816, 1541908497816
63, -136.12, 14873.01, 187500.00, 187500.00, -187500.02, -187500.02, -187500.02, -187500.02, 0.000, 0.000, 0.000, 22:54:57.816, 1541908497816
64, -90.90, 14800.01, 187500.00, 187500.00, -187500.02, -187500.02, -187500.02, -187500.02, 0.000, 0.000, 0.000, 22:54:57.816, 1541908497816
65, 43.25, 14916.44, 187500.00, 187500.00, -187500.02, -187500.02, -187500.02, -187500.02, 0.000, 0.000, 0.000, 22:54:57.816, 1541908497816
66, -26.04, 14947.37, 187500.00, 187500.00, -187500.02, -187500.02, -187500.02, -187500.02, 0.000, 0.000, 0.000, 22:54:57.817, 1541908497817
67, -106.93, 14880.56, 187500.00, 187500.00, -187500.02, -187500.02, -187500.02, -187500.02, 0.000, 0.000, 0.000, 22:54:57.817, 1541908497817
68, -27.38, 14942.72, 187500.00, 187500.00, -187500.02, -187500.02, -187500.02, -187500.02, 0.000, 0.000, 0.000, 22:54:57.817, 1541908497817
69, 37.95, 14989.86, 187500.00, 187500.00, -187500.02, -187500.02, -187500.02, -187500.02, 0.000, 0.000, 0.000, 22:54:57.817, 1541908497817
